LabVIEW Measurement	
Writer_Version	2
Reader_Version	2
Separator	Tab
Decimal_Separator	.
Multi_Headings	Yes
X_Columns	No
Time_Pref	Relative
Operator	stud40
Description	Saved t, TC, RISC, PT100
Date	2023/03/21
Time	19:07:38.0871996879577636719
***End_of_Header***	
	
Channels	4				
Samples	1200	1200	1200	1200	
Date	2023/03/21	2023/03/21	2023/03/21	2023/03/21	
Time	19:07:38.0871996879577636719	19:07:38.0871996879577636719	19:07:38.0871996879577636719	19:07:38.0871996879577636719	
X_Dimension	Time	Time	Time	Time	
X0	0.0000000000000000E+0	0.0000000000000000E+0	0.0000000000000000E+0	0.0000000000000000E+0	
Delta_X	1.000000	1.000000	1.000000	1.000000	
***End_of_Header***					
X_Value	Untitled	Untitled 1	Untitled 2	Untitled 3	Comment
	0.000000	0.379797	-0.000152	0.098072
	0.100000	0.381046	-0.000152	0.098085
	0.200000	0.379391	-0.000244	0.098077
	0.300000	0.382422	-0.000395	0.098075
	0.400000	0.379343	-0.000464	0.098075
	0.500000	0.380425	-0.000550	0.098078
	0.600000	0.380410	-0.000559	0.098075
	0.700000	0.379389	-0.000605	0.098074
	0.800000	0.381261	-0.000500	0.098077
	0.900000	0.380961	-0.000415	0.098081
	1.000000	0.381087	8.169053	0.098084
	1.100000	0.380840	9.934888	0.098078
	1.200000	0.379909	9.934430	0.098084
	1.300000	0.379450	9.934575	0.098076
	1.400000	0.382286	9.934463	0.098086
	1.500000	0.380337	9.934312	0.098075
	1.600000	0.381921	9.934420	0.098075
	1.700000	0.381011	9.934460	0.098078
	1.800000	0.381290	9.934453	0.098077
	1.900000	0.383106	9.934516	0.098079
	2.000000	0.380314	9.934493	0.098074
	2.100000	0.381353	9.934404	0.098078
	2.200000	0.381162	9.934434	0.098079
	2.300000	0.384830	9.934513	0.098069
	2.400000	0.381568	9.934634	0.098073
	2.500000	0.382214	2.832001	0.098092
	2.600000	0.382627	-0.000569	0.098076
	2.700000	0.381337	-0.000283	0.098073
	2.800000	0.380863	-0.000201	0.098081
	2.900000	0.380237	-0.000217	0.098077
	3.000000	0.379013	-0.000224	0.098081
	3.100000	0.381395	-0.000329	0.098077
	3.200000	0.381544	-0.000237	0.098075
	3.300000	0.380024	-0.000346	0.098083
	3.400000	0.381407	-0.000280	0.098081
	3.500000	0.379857	-0.000293	0.098080
	3.600000	0.380276	-0.000332	0.098074
	3.700000	0.380516	-0.000474	0.098073
	3.800000	0.379598	-0.000438	0.098076
	3.900000	0.381129	-0.000405	0.098077
	4.000000	0.379944	-0.000392	0.098076
	4.100000	0.380350	-0.000411	0.098074
	4.200000	0.379265	-0.000520	0.098076
	4.300000	0.379527	-0.000566	0.098068
	4.400000	0.378403	-0.000375	0.098077
	4.500000	0.378918	-0.000487	0.098076
	4.600000	0.376879	-0.000401	0.098078
	4.700000	0.377882	-0.000359	0.098067
	4.800000	0.379701	-5.943369E-5	0.098072
	4.900000	0.377101	-0.000253	0.098078
	5.000000	0.378614	-0.000589	0.098064
	5.100000	0.376307	-0.000543	0.098074
	5.200000	0.377975	-0.000451	0.098078
	5.300000	0.378116	-0.000451	0.098079
	5.400000	0.376299	-0.000411	0.098070
	5.500000	0.375351	-0.000497	0.098068
	5.600000	0.376099	-0.000300	0.098078
	5.700000	0.374335	-0.000461	0.098072
	5.800000	0.372071	-0.000349	0.098077
	5.900000	0.372317	-0.000382	0.098084
	6.000000	0.370276	-0.000359	0.098079
	6.100000	0.370158	-0.000411	0.098067
	6.200000	0.370895	-0.000359	0.098089
	6.300000	0.367256	-0.000296	0.098077
	6.400000	0.367437	-0.000145	0.098079
	6.500000	0.366370	-0.000365	0.098080
	6.600000	0.364690	-0.000260	0.098070
	6.700000	0.361117	-0.000296	0.098078
	6.800000	0.361995	-0.000336	0.098072
	6.900000	0.359459	-0.000523	0.098077
	7.000000	0.358018	-0.000477	0.098073
	7.100000	0.358246	-0.000346	0.098075
	7.200000	0.355570	-0.000480	0.098080
	7.300000	0.355251	-0.000487	0.098074
	7.400000	0.353935	-0.000431	0.098071
	7.500000	0.353152	-0.000494	0.098079
	7.600000	0.350811	-0.000369	0.098074
	7.700000	0.349896	-0.000375	0.098075
	7.800000	0.347621	-0.000369	0.098083
	7.900000	0.349260	-0.000411	0.098078
	8.000000	0.345202	-0.000355	0.098068
	8.100000	0.343528	-0.000342	0.098073
	8.200000	0.342844	-0.000303	0.098080
	8.300000	0.341478	-0.000369	0.098078
	8.400000	0.340575	-0.000411	0.098078
	8.500000	0.338039	-0.000464	0.098078
	8.600000	0.336407	-0.000313	0.098078
	8.700000	0.336762	-0.000263	0.098077
	8.800000	0.331770	-0.000359	0.098082
	8.900000	0.330757	-0.000326	0.098081
	9.000000	0.329183	-0.000349	0.098078
	9.100000	0.327201	-0.000293	0.098065
	9.200000	0.325267	-0.000267	0.098077
	9.300000	0.324190	-0.000224	0.098071
	9.400000	0.323358	-0.000240	0.098077
	9.500000	0.319407	-0.000263	0.098080
	9.600000	0.320519	-0.000214	0.098073
	9.700000	0.320595	-0.000204	0.098083
	9.800000	0.317724	-0.000323	0.098067
	9.900000	0.315907	-0.000342	0.098081
	10.000000	0.314112	-0.000250	0.098071
	10.100000	0.314587	-0.000303	0.098067
	10.200000	0.311857	-0.000332	0.098071
	10.300000	0.310060	-0.000293	0.098077
	10.400000	0.312177	-0.000306	0.098076
	10.500000	0.306690	-0.000411	0.098077
	10.600000	0.306673	-0.000188	0.098078
	10.700000	0.305637	-0.000224	0.098078
	10.800000	0.304957	-0.000342	0.098075
	10.900000	0.299337	-0.000398	0.098067
	11.000000	0.303592	-0.000513	0.098084
	11.100000	0.299374	-0.000513	0.098076
	11.200000	0.299180	-0.000556	0.098078
	11.300000	0.296024	-0.000388	0.098076
	11.400000	0.294754	-0.000306	0.098076
	11.500000	0.293100	-0.000319	0.098078
	11.600000	0.293771	-0.000270	0.098074
	11.700000	0.291877	-0.000408	0.098074
	11.800000	0.290551	-0.000398	0.098076
	11.900000	0.292041	-0.000224	0.098079
	12.000000	0.288670	-0.000214	0.098075
	12.100000	0.292236	-0.000158	0.098073
	12.200000	0.287890	-0.000250	0.098068
	12.300000	0.285872	-0.000342	0.098074
	12.400000	0.285575	-0.000260	0.098077
	12.500000	0.283375	-0.000250	0.098081
	12.600000	0.279971	-0.000277	0.098077
	12.700000	0.282249	-0.000355	0.098069
	12.800000	0.280899	-0.000201	0.098084
	12.900000	0.279529	-0.000306	0.098086
	13.000000	0.277808	-0.000280	0.098077
	13.100000	0.277627	-0.000102	0.098076
	13.200000	0.275934	-0.000204	0.098076
	13.300000	0.275591	-0.000398	0.098075
	13.400000	0.274205	-0.000277	0.098078
	13.500000	0.272675	-0.000415	0.098082
	13.600000	0.272576	-0.000448	0.098069
	13.700000	0.272459	-0.000303	0.098072
	13.800000	0.271304	-0.000346	0.098074
	13.900000	0.269614	-0.000270	0.098076
	14.000000	0.270319	-0.000392	0.098072
	14.100000	0.266372	-0.000283	0.098077
	14.200000	0.268336	-0.000359	0.098074
	14.300000	0.269379	-0.000369	0.098076
	14.400000	0.264623	-0.000303	0.098078
	14.500000	0.265951	-0.000237	0.098075
	14.600000	0.266524	-0.000306	0.098079
	14.700000	0.264765	-0.000263	0.098080
	14.800000	0.262131	-0.000352	0.098077
	14.900000	0.264973	-0.000464	0.098070
	15.000000	0.261497	-0.000378	0.098076
	15.100000	0.262220	-0.000418	0.098077
	15.200000	0.261061	-0.000296	0.098073
	15.300000	0.261720	-0.000303	0.098079
	15.400000	0.259699	-0.000329	0.098072
	15.500000	0.259088	-0.000267	0.098070
	15.600000	0.259279	-0.000329	0.098076
	15.700000	0.258697	-0.000303	0.098078
	15.800000	0.258414	-0.000326	0.098074
	15.900000	0.257809	-0.000359	0.098079
	16.000000	0.257278	-0.000240	0.098079
	16.100000	0.256135	-0.000214	0.098075
	16.200000	0.255614	-0.000378	0.098074
	16.300000	0.255274	-0.000224	0.098079
	16.400000	0.255137	-0.000378	0.098077
	16.500000	0.253439	-0.000349	0.098084
	16.600000	0.253875	-0.000260	0.098083
	16.700000	0.253729	-0.000211	0.098076
	16.800000	0.253004	-0.000441	0.098080
	16.900000	0.251939	-0.000359	0.098082
	17.000000	0.253874	-0.000300	0.098073
	17.100000	0.254743	-0.000316	0.098080
	17.200000	0.253279	-0.000352	0.098076
	17.300000	0.252743	-0.000280	0.098078
	17.400000	0.252872	-0.000405	0.098080
	17.500000	0.253454	-0.000369	0.098071
	17.600000	0.254275	-0.000592	0.098078
	17.700000	0.254475	-0.000388	0.098072
	17.800000	0.254500	-0.000444	0.098074
	17.900000	0.251664	-0.000411	0.098072
	18.000000	0.253425	-0.000352	0.098074
	18.100000	0.253974	-0.000270	0.098072
	18.200000	0.252158	-0.000503	0.098075
	18.300000	0.252956	-0.000434	0.098072
	18.400000	0.253150	-0.000385	0.098074
	18.500000	0.253818	-0.000428	0.098076
	18.600000	0.251345	-0.000372	0.098075
	18.700000	0.249791	-0.000267	0.098075
	18.800000	0.249507	-0.000388	0.098071
	18.900000	0.251389	-0.000451	0.098075
	19.000000	0.249574	-0.000346	0.098077
	19.100000	0.249561	-0.000375	0.098072
	19.200000	0.248064	-0.000395	0.098074
	19.300000	0.248227	-0.000398	0.098078
	19.400000	0.249724	-0.000385	0.098078
	19.500000	0.250517	-0.000415	0.098073
	19.600000	0.248269	-0.000408	0.098069
	19.700000	0.247009	-0.000365	0.098082
	19.800000	0.248711	-0.000290	0.098071
	19.900000	0.249016	-0.000428	0.098071
	20.000000	0.247092	-0.000309	0.098077
	20.100000	0.248980	-0.000250	0.098078
	20.200000	0.249746	-0.000135	0.098085
	20.300000	0.247972	-0.000293	0.098077
	20.400000	0.247787	-0.000428	0.098069
	20.500000	0.247750	-0.000273	0.098079
	20.600000	0.249234	-0.000319	0.098078
	20.700000	0.248951	-0.000323	0.098071
	20.800000	0.247426	-0.000349	0.098079
	20.900000	0.248278	-0.000250	0.098080
	21.000000	0.248049	-0.000336	0.098077
	21.100000	0.248062	-0.000441	0.098073
	21.200000	0.248533	-0.000378	0.098073
	21.300000	0.249041	-0.000401	0.098074
	21.400000	0.248113	-0.000421	0.098066
	21.500000	0.248432	-0.000204	0.098074
	21.600000	0.248738	-0.000451	0.098082
	21.700000	0.249333	-0.000346	0.098070
	21.800000	0.246448	-0.000388	0.098070
	21.900000	0.246410	-0.000438	0.098074
	22.000000	0.249962	-0.000375	0.098071
	22.100000	0.248266	-0.000500	0.098082
	22.200000	0.249849	-0.000388	0.098069
	22.300000	0.249495	-0.000421	0.098071
	22.400000	0.247356	-0.000513	0.098069
	22.500000	0.246040	-0.000431	0.098077
	22.600000	0.249156	-0.000503	0.098072
	22.700000	0.248639	-0.000365	0.098078
	22.800000	0.247197	-0.000405	0.098072
	22.900000	0.247236	-0.000540	0.098077
	23.000000	0.247023	-0.000434	0.098078
	23.100000	0.247598	-0.000395	0.098072
	23.200000	0.248195	-0.000487	0.098081
	23.300000	0.249839	-0.000375	0.098077
	23.400000	0.248506	-0.000293	0.098076
	23.500000	0.248064	-0.000342	0.098071
	23.600000	0.250571	-0.000280	0.098066
	23.700000	0.250080	-0.000309	0.098074
	23.800000	0.251820	-0.000369	0.098070
	23.900000	0.249526	-0.000441	0.098071
	24.000000	0.252439	-0.000431	0.098071
	24.100000	0.250293	-0.000425	0.098080
	24.200000	0.252039	-0.000332	0.098078
	24.300000	0.252214	-0.000395	0.098073
	24.400000	0.248918	-0.000362	0.098070
	24.500000	0.248339	-0.000405	0.098072
	24.600000	0.250879	-0.000286	0.098069
	24.700000	0.249324	-0.000359	0.098073
	24.800000	0.250310	-0.000346	0.098070
	24.900000	0.252040	-0.000425	0.098074
	25.000000	0.251721	-0.000451	0.098071
	25.100000	0.251505	-0.000346	0.098081
	25.200000	0.253185	-0.000425	0.098081
	25.300000	0.252741	-0.000323	0.098077
	25.400000	0.252417	-0.000336	0.098071
	25.500000	0.253379	-0.000438	0.098070
	25.600000	0.253507	-0.000461	0.098073
	25.700000	0.256018	-0.000352	0.098079
	25.800000	0.253326	-0.000263	0.098081
	25.900000	0.254046	-0.000418	0.098071
	26.000000	0.252394	-0.000355	0.098071
	26.100000	0.254757	-0.000388	0.098078
	26.200000	0.253618	-0.000323	0.098080
	26.300000	0.254535	-0.000316	0.098077
	26.400000	0.253941	-0.000355	0.098073
	26.500000	0.254401	-0.000375	0.098074
	26.600000	0.256432	-0.000267	0.098072
	26.700000	0.256437	-0.000398	0.098078
	26.800000	0.256502	-0.000234	0.098077
	26.900000	0.255756	-0.000207	0.098078
	27.000000	0.255877	-0.000217	0.098078
	27.100000	0.257553	-0.000296	0.098073
	27.200000	0.253640	-0.000352	0.098072
	27.300000	0.256343	-0.000388	0.098076
	27.400000	0.256300	-0.000323	0.098081
	27.500000	0.258437	-0.000369	0.097235
	27.600000	0.256546	-0.000257	0.098071
	27.700000	0.257098	-0.000178	0.098069
	27.800000	0.256610	-0.000362	0.098076
	27.900000	0.259062	-0.000349	0.098078
	28.000000	0.258739	-0.000293	0.098075
	28.100000	0.255956	-0.000290	0.098075
	28.200000	0.257740	-0.000280	0.098076
	28.300000	0.258431	-0.000221	0.098078
	28.400000	0.257854	-0.000283	0.098072
	28.500000	0.257914	-0.000385	0.098072
	28.600000	0.259472	-0.000175	0.098079
	28.700000	0.258547	-0.000477	0.098075
	28.800000	0.257702	-0.000277	0.098074
	28.900000	0.260516	-0.000398	0.098074
	29.000000	0.260982	-0.000237	0.097831
	29.100000	0.259333	-0.000349	0.098076
	29.200000	0.261908	-0.000375	0.098073
	29.300000	0.261203	-0.000385	0.098083
	29.400000	0.261233	-0.000247	0.098077
	29.500000	0.260735	-0.000227	0.098070
	29.600000	0.260698	-0.000234	0.098076
	29.700000	0.260884	-0.000536	0.098070
	29.800000	0.263537	-0.000217	0.098074
	29.900000	0.259568	-0.000138	0.098078
	30.000000	0.263591	-0.000227	0.098069
	30.100000	0.262942	-0.000306	0.098078
	30.200000	0.261806	-0.000224	0.098069
	30.300000	0.260970	-0.000441	0.098075
	30.400000	0.262467	-0.000349	0.098080
	30.500000	0.262562	-0.000526	0.098074
	30.600000	0.261658	-0.000622	0.098075
	30.700000	0.261827	-6.808859E-6	0.098082
	30.800000	0.263303	-4.956653E-5	0.098061
	30.900000	0.262386	-0.000211	0.098068
	31.000000	0.263536	-0.000165	0.098079
	31.100000	0.261975	-0.000178	0.098078
	31.200000	0.263693	-0.000135	0.098078
	31.300000	0.263736	-0.000273	0.098071
	31.400000	0.264450	-9.890231E-5	0.098076
	31.500000	0.265637	-0.000214	0.098077
	31.600000	0.263614	-0.000247	0.098078
	31.700000	0.265324	-0.000257	0.098072
	31.800000	0.266353	-0.000332	0.098079
	31.900000	0.264877	-0.000207	0.098075
	32.000000	0.266171	-0.000224	0.098077
	32.100000	0.266373	-0.000398	0.098075
	32.200000	0.266397	-0.000198	0.098075
	32.300000	0.266301	-0.000188	0.098067
	32.400000	0.269673	-0.000355	0.098079
	32.500000	0.268436	-0.000257	0.098069
	32.600000	0.265747	-0.000234	0.098081
	32.700000	0.267981	-0.000247	0.098077
	32.800000	0.269635	-0.000306	0.098083
	32.900000	0.268258	-0.000283	0.098075
	33.000000	0.268574	-0.000260	0.098078
	33.100000	0.270200	-0.000129	0.098074
	33.200000	0.269518	-8.903516E-5	0.098076
	33.300000	0.270564	-0.000175	0.098080
	33.400000	0.270448	-0.000296	0.098077
	33.500000	0.270713	-0.000161	0.098077
	33.600000	0.270239	-0.000142	0.098064
	33.700000	0.271212	-0.000142	0.098072
	33.800000	0.269478	-0.000234	0.098069
	33.900000	0.272655	-0.000214	0.098077
	34.000000	0.270227	-0.000155	0.098076
	34.100000	0.271052	-0.000135	0.098067
	34.200000	0.271785	-8.903516E-5	0.098064
	34.300000	0.270707	-0.000105	0.098083
	34.400000	0.270892	-0.000250	0.098076
	34.500000	0.271165	-0.000145	0.098077
	34.600000	0.271782	-0.000158	0.098076
	34.700000	0.273299	-0.000155	0.098066
	34.800000	0.272120	-0.000240	0.098073
	34.900000	0.273855	-0.000230	0.098078
	35.000000	0.272691	-0.000270	0.098071
	35.100000	0.273112	-0.000129	0.098077
	35.200000	0.272549	-0.000316	0.098070
	35.300000	0.272315	-0.000188	0.098070
	35.400000	0.275197	-0.000119	0.098075
	35.500000	0.275759	-0.000135	0.098076
	35.600000	0.276236	-0.000244	0.098072
	35.700000	0.276912	-0.000152	0.098063
	35.800000	0.275706	-0.000178	0.098079
	35.900000	0.276695	-0.000230	0.098075
	36.000000	0.275547	-0.000342	0.098078
	36.100000	0.276447	-0.000240	0.098082
	36.200000	0.276737	-0.000375	0.098083
	36.300000	0.276633	-0.000175	0.098074
	36.400000	0.277303	-0.000184	0.098065
	36.500000	0.276382	-5.614464E-5	0.098076
	36.600000	0.276777	-0.000332	0.098075
	36.700000	0.277836	-0.000178	0.098083
	36.800000	0.278736	-0.000336	0.098077
	36.900000	0.277574	-0.000135	0.098073
	37.000000	0.277750	-0.000194	0.098070
	37.100000	0.279677	-0.000171	0.098068
	37.200000	0.277840	-0.000388	0.098075
	37.300000	0.279337	-0.000457	0.098069
	37.400000	0.278714	-0.000198	0.098077
	37.500000	0.280815	-9.890231E-5	0.098068
	37.600000	0.281434	-5.285559E-5	0.098070
	37.700000	0.281578	-0.000217	0.098071
	37.800000	0.278673	-0.000207	0.098071
	37.900000	0.281486	-0.000184	0.098065
	38.000000	0.280384	-0.000138	0.098069
	38.100000	0.281213	-0.000152	0.098071
	38.200000	0.282605	-0.000145	0.098073
	38.300000	0.281514	-0.000158	0.098079
	38.400000	0.281713	-0.000155	0.098070
	38.500000	0.282953	-0.000198	0.098077
	38.600000	0.281674	-0.000168	0.098072
	38.700000	0.278734	-0.000184	0.098070
	38.800000	0.281748	-0.000119	0.098074
	38.900000	0.283046	-0.000191	0.098075
	39.000000	0.282600	-0.000109	0.098069
	39.100000	0.281649	-0.000283	0.098071
	39.200000	0.282658	-0.000230	0.098075
	39.300000	0.283146	-0.000359	0.098073
	39.400000	0.282297	-0.000346	0.098054
	39.500000	0.283317	-0.000152	0.098072
	39.600000	0.283949	-0.000129	0.098058
	39.700000	0.283685	-0.000155	0.098070
	39.800000	0.285195	-0.000207	0.098077
	39.900000	0.285883	-0.000526	0.098075
	40.000000	0.284912	-0.000227	0.098080
	40.100000	0.284267	-0.000198	0.098073
	40.200000	0.284848	-0.000204	0.098072
	40.300000	0.283887	-0.000428	0.098082
	40.400000	0.286465	-0.000138	0.098079
	40.500000	0.287338	-0.000188	0.098067
	40.600000	0.285742	-0.000122	0.098071
	40.700000	0.286376	-8.903516E-5	0.098076
	40.800000	0.287964	-0.000142	0.098075
	40.900000	0.286978	-9.890231E-5	0.098060
	41.000000	0.287015	-0.000474	0.098068
	41.100000	0.286934	-0.000286	0.098074
	41.200000	0.286971	-0.000158	0.098065
	41.300000	0.288851	-6.930085E-5	0.098069
	41.400000	0.287401	-0.000221	0.098072
	41.500000	0.287676	-0.000244	0.097424
	41.600000	0.289090	-0.000369	0.098079
	41.700000	0.289202	-0.000260	0.098072
	41.800000	0.287435	-0.000132	0.098075
	41.900000	0.291821	-0.000329	0.098070
	42.000000	0.290116	-0.000240	0.098072
	42.100000	0.290623	-0.000280	0.098072
	42.200000	0.290242	-0.000273	0.098077
	42.300000	0.289953	-0.000316	0.098074
	42.400000	0.290556	-0.000309	0.098082
	42.500000	0.292007	-0.000253	0.098071
	42.600000	0.292324	-0.000253	0.098079
	42.700000	0.291403	-0.000201	0.098072
	42.800000	0.291539	-0.000362	0.098070
	42.900000	0.291042	-0.000171	0.098073
	43.000000	0.292635	-0.000253	0.098071
	43.100000	0.292270	-0.000339	0.098077
	43.200000	0.291295	-0.000365	0.098071
	43.300000	0.293229	-0.000158	0.098075
	43.400000	0.292559	-0.000398	0.098068
	43.500000	0.294523	-0.000240	0.098072
	43.600000	0.293249	-0.000352	0.098067
	43.700000	0.292345	-0.000168	0.098072
	43.800000	0.293531	-0.000388	0.098079
	43.900000	0.292464	-0.000214	0.098073
	44.000000	0.294440	-0.000227	0.098074
	44.100000	0.294199	-0.000382	0.098075
	44.200000	0.294144	-0.000336	0.098067
	44.300000	0.294229	-0.000283	0.098077
	44.400000	0.295292	-0.000326	0.098075
	44.500000	0.293145	-0.000319	0.098075
	44.600000	0.294962	-0.000378	0.098074
	44.700000	0.294856	-0.000398	0.098076
	44.800000	0.294626	-0.000398	0.098075
	44.900000	0.295550	-0.000392	0.098075
	45.000000	0.296112	-0.000434	0.098081
	45.100000	0.295460	-0.000237	0.098063
	45.200000	0.297728	-0.000290	0.098069
	45.300000	0.295976	-0.000277	0.098082
	45.400000	0.297132	-0.000428	0.098072
	45.500000	0.297867	-0.000260	0.098077
	45.600000	0.298451	-0.000129	0.098076
	45.700000	0.299471	-0.000165	0.098075
	45.800000	0.297617	-0.000165	0.098074
	45.900000	0.298042	-0.000365	0.098078
	46.000000	0.296744	-0.000181	0.098067
	46.100000	0.297199	-0.000326	0.098077
	46.200000	0.299962	-0.000247	0.098076
	46.300000	0.298865	-0.000142	0.098070
	46.400000	0.297808	-0.000224	0.098076
	46.500000	0.300862	-0.000112	0.098065
	46.600000	0.300919	-0.000181	0.098069
	46.700000	0.299048	-0.000247	0.098065
	46.800000	0.300633	-0.000260	0.098071
	46.900000	0.301510	-0.000234	0.098077
	47.000000	0.302434	-0.000168	0.098075
	47.100000	0.300088	-0.000138	0.098066
	47.200000	0.300713	-0.000234	0.098073
	47.300000	0.300793	-0.000263	0.098068
	47.400000	0.302496	-0.000369	0.098072
	47.500000	0.302794	-0.000290	0.098072
	47.600000	0.302321	-7.587895E-5	0.098077
	47.700000	0.302222	-9.232421E-5	0.098070
	47.800000	0.302193	-0.000217	0.098076
	47.900000	0.301822	-0.000158	0.098076
	48.000000	0.302579	-0.000129	0.098073
	48.100000	0.301653	-0.000112	0.098073
	48.200000	0.302508	-0.000165	0.098075
	48.300000	0.305086	-0.000240	0.098029
	48.400000	0.303608	-9.890231E-5	0.098073
	48.500000	0.301736	-0.000273	0.098074
	48.600000	0.304242	-0.000142	0.098070
	48.700000	0.303246	-0.000227	0.098074
	48.800000	0.304766	-0.000250	0.098076
	48.900000	0.304185	-0.000250	0.098075
	49.000000	0.305441	-0.000175	0.098075
	49.100000	0.304550	-0.000240	0.098071
	49.200000	0.303791	-6.930085E-5	0.098075
	49.300000	0.305479	-0.000125	0.098071
	49.400000	0.305196	-7.587895E-5	0.098074
