LabVIEW Measurement	
Writer_Version	2
Reader_Version	2
Separator	Tab
Decimal_Separator	.
Multi_Headings	Yes
X_Columns	No
Time_Pref	Relative
Operator	stud40
Description	Saved t, TC, RISC, PT100
Date	2023/03/21
Time	18:46:38.3516287803649902344
***End_of_Header***	
	
Channels	4				
Samples	1200	1200	1200	1200	
Date	2023/03/21	2023/03/21	2023/03/21	2023/03/21	
Time	18:46:38.3516287803649902344	18:46:38.3516287803649902344	18:46:38.3516287803649902344	18:46:38.3516287803649902344	
X_Dimension	Time	Time	Time	Time	
X0	0.0000000000000000E+0	0.0000000000000000E+0	0.0000000000000000E+0	0.0000000000000000E+0	
Delta_X	1.000000	1.000000	1.000000	1.000000	
***End_of_Header***					
X_Value	Untitled	Untitled 1	Untitled 2	Untitled 3	Comment
	0.000000	0.380580	-0.000168	0.098191
	0.100000	0.378524	-7.916800E-5	0.098188
	0.200000	0.379948	-0.000306	0.098192
	0.300000	0.379849	-0.000115	0.098195
	0.400000	0.378291	-0.000119	0.098185
	0.500000	0.378961	-0.000250	0.098186
	0.600000	0.379824	-0.000148	0.098192
	0.700000	0.381424	-0.000237	0.098197
	0.800000	0.379552	-0.000250	0.098195
	0.900000	0.381040	-0.000217	0.098191
	1.000000	0.381959	8.520127	0.098205
	1.100000	0.380604	9.909390	0.098196
	1.200000	0.380700	9.908384	0.098191
	1.300000	0.379394	9.908604	0.098188
	1.400000	0.379932	9.908644	0.098189
	1.500000	0.379229	9.908460	0.098196
	1.600000	0.380275	9.908700	0.098193
	1.700000	0.379132	9.908687	0.098191
	1.800000	0.381928	9.908762	0.098192
	1.900000	0.380586	9.908828	0.098188
	2.000000	0.381790	3.319189	0.098203
	2.100000	0.381809	-0.000309	0.098202
	2.200000	0.380196	-0.000418	0.098196
	2.300000	0.380136	-0.000247	0.098194
	2.400000	0.380169	-0.000405	0.098192
	2.500000	0.380594	-0.000244	0.098190
	2.600000	0.381288	-0.000355	0.098194
	2.700000	0.380360	-0.000418	0.098194
	2.800000	0.379259	-0.000454	0.098186
	2.900000	0.381137	-0.000467	0.098197
	3.000000	0.379381	-0.000313	0.098188
	3.100000	0.379824	-0.000201	0.098191
	3.200000	0.379872	-0.000332	0.098196
	3.300000	0.379100	-0.000244	0.098196
	3.400000	0.379857	-0.000309	0.098189
	3.500000	0.380052	-0.000375	0.098192
	3.600000	0.378912	-0.000204	0.098196
	3.700000	0.379970	-0.000293	0.098191
	3.800000	0.379079	-0.000405	0.098188
	3.900000	0.379726	-0.000346	0.098196
	4.000000	0.376693	-0.000332	0.098197
	4.100000	0.378971	-0.000273	0.098191
	4.200000	0.379292	-0.000448	0.098191
	4.300000	0.377770	-0.000313	0.098197
	4.400000	0.378500	-0.000362	0.098196
	4.500000	0.377297	-0.000382	0.098196
	4.600000	0.376807	-0.000303	0.098195
	4.700000	0.377565	-0.000270	0.098189
	4.800000	0.377495	-0.000253	0.098194
	4.900000	0.376955	-0.000132	0.098197
	5.000000	0.376546	-0.000230	0.098201
	5.100000	0.377394	-0.000237	0.098189
	5.200000	0.374253	-0.000198	0.098189
	5.300000	0.374355	-0.000425	0.098191
	5.400000	0.371335	-0.000421	0.098195
	5.500000	0.372415	-0.000401	0.098197
	5.600000	0.370808	-0.000224	0.098202
	5.700000	0.370289	-0.000326	0.098195
	5.800000	0.371531	-0.000323	0.098192
	5.900000	0.370668	-0.000461	0.098196
	6.000000	0.370921	-0.000401	0.098195
	6.100000	0.366975	-0.000303	0.098190
	6.200000	0.368649	-0.000346	0.098192
	6.300000	0.367083	-0.000273	0.098187
	6.400000	0.369115	-0.000132	0.098195
	6.500000	0.366582	-0.000234	0.098197
	6.600000	0.364833	-0.000319	0.098196
	6.700000	0.366107	-0.000375	0.098195
	6.800000	0.363545	-0.000230	0.098189
	6.900000	0.363173	-0.000234	0.098186
	7.000000	0.359960	-0.000286	0.098186
	7.100000	0.360707	-0.000290	0.098193
	7.200000	0.359803	-0.000280	0.098195
	7.300000	0.358313	-0.000369	0.098196
	7.400000	0.357273	-0.000283	0.098196
	7.500000	0.359063	-0.000260	0.098192
	7.600000	0.354578	-0.000184	0.098199
	7.700000	0.356457	-0.000421	0.098194
	7.800000	0.353596	-0.000326	0.098197
	7.900000	0.352558	-0.000250	0.098199
	8.000000	0.350406	-0.000244	0.098193
	8.100000	0.349986	-0.000250	0.098195
	8.200000	0.348921	-0.000313	0.098197
	8.300000	0.348072	-0.000260	0.098205
	8.400000	0.345376	-0.000323	0.097380
	8.500000	0.347481	-0.000306	0.098199
	8.600000	0.345203	-0.000257	0.098192
	8.700000	0.343532	-0.000382	0.098202
	8.800000	0.343823	-0.000392	0.098184
	8.900000	0.341182	-0.000484	0.098195
	9.000000	0.340051	-0.000487	0.098202
	9.100000	0.338834	-0.000530	0.098191
	9.200000	0.339769	-0.000530	0.098193
	9.300000	0.333821	-9.232421E-5	0.098191
	9.400000	0.336396	-0.000457	0.098196
	9.500000	0.335792	-0.000536	0.098196
	9.600000	0.334108	-0.000592	0.098194
	9.700000	0.334328	-0.000309	0.098195
	9.800000	0.331435	-0.000323	0.098194
	9.900000	0.330490	-0.000378	0.098197
	10.000000	0.329707	-0.000290	0.098198
	10.100000	0.327599	-0.000300	0.098196
	10.200000	0.326972	-0.000388	0.098191
	10.300000	0.325094	-0.000372	0.098197
	10.400000	0.327033	-0.000332	0.098188
	10.500000	0.323558	-0.000217	0.098200
	10.600000	0.323580	-0.000352	0.098201
	10.700000	0.321767	-0.000326	0.098197
	10.800000	0.321128	-0.000385	0.098195
	10.900000	0.323086	-0.000352	0.098193
	11.000000	0.320782	-0.000224	0.098197
	11.100000	0.320179	-0.000329	0.098199
	11.200000	0.318637	-0.000286	0.098196
	11.300000	0.317685	-0.000382	0.098189
	11.400000	0.318137	-0.000270	0.098192
	11.500000	0.317177	-0.000375	0.098199
	11.600000	0.316067	-0.000323	0.098198
	11.700000	0.315552	-0.000431	0.098205
	11.800000	0.315138	-0.000244	0.098189
	11.900000	0.313711	-0.000125	0.098192
	12.000000	0.314115	-0.000240	0.098195
	12.100000	0.312842	-0.000270	0.098196
	12.200000	0.314143	-0.000290	0.098202
	12.300000	0.309321	-0.000336	0.098197
	12.400000	0.310386	-0.000339	0.098196
	12.500000	0.310582	-0.000293	0.098196
	12.600000	0.307483	-0.000286	0.098200
	12.700000	0.308730	-0.000270	0.098194
	12.800000	0.305038	-0.000253	0.098195
	12.900000	0.306422	-0.000362	0.098197
	13.000000	0.306786	-0.000277	0.098193
	13.100000	0.307048	-0.000214	0.098200
	13.200000	0.304011	-0.000181	0.098200
	13.300000	0.305918	-0.000191	0.098194
	13.400000	0.303309	-0.000230	0.098194
	13.500000	0.304319	-0.000198	0.098196
	13.600000	0.302528	-0.000411	0.098191
	13.700000	0.302756	-0.000129	0.098194
	13.800000	0.302165	-0.000198	0.098191
	13.900000	0.302118	-0.000227	0.098197
	14.000000	0.301279	-0.000102	0.098196
	14.100000	0.301378	-0.000260	0.098203
	14.200000	0.298988	-0.000474	0.098194
	14.300000	0.298632	-0.000349	0.098198
	14.400000	0.299511	-0.000260	0.098205
	14.500000	0.297903	-0.000201	0.098189
	14.600000	0.297384	-0.000332	0.098203
	14.700000	0.297461	-0.000313	0.098204
	14.800000	0.295203	-0.000184	0.098196
	14.900000	0.299191	-0.000369	0.098193
	15.000000	0.295046	-0.000290	0.098194
	15.100000	0.296693	-0.000319	0.098193
	15.200000	0.294539	-0.000267	0.098189
	15.300000	0.292865	-0.000138	0.098203
	15.400000	0.296649	-0.000306	0.098197
	15.500000	0.295581	-0.000227	0.098201
	15.600000	0.293777	-0.000181	0.098194
	15.700000	0.293536	-0.000392	0.098196
	15.800000	0.294341	-0.000362	0.098201
	15.900000	0.291136	-0.000270	0.098198
	16.000000	0.291984	-0.000267	0.098193
	16.100000	0.291195	-0.000260	0.098197
	16.200000	0.293042	-0.000398	0.098196
	16.300000	0.293524	-0.000369	0.098188
	16.400000	0.293632	-0.000237	0.098199
	16.500000	0.292003	-0.000411	0.098200
	16.600000	0.290455	-0.000355	0.098202
	16.700000	0.292429	-0.000369	0.098204
	16.800000	0.292356	-0.000211	0.098197
	16.900000	0.289931	-0.000122	0.098190
	17.000000	0.291510	-0.000342	0.098194
	17.100000	0.289696	-0.000260	0.098197
	17.200000	0.291069	-0.000253	0.098195
	17.300000	0.291074	-0.000270	0.098193
	17.400000	0.291357	-0.000293	0.098197
	17.500000	0.287922	-0.000405	0.098198
	17.600000	0.289875	-0.000365	0.098203
	17.700000	0.287740	-0.000434	0.098199
	17.800000	0.288300	-0.000346	0.098192
	17.900000	0.288976	-0.000332	0.098199
	18.000000	0.289256	-0.000283	0.098193
	18.100000	0.288219	-0.000415	0.098194
	18.200000	0.288098	-0.000309	0.098206
	18.300000	0.288763	-0.000359	0.098193
	18.400000	0.290251	-0.000395	0.098194
	18.500000	0.288904	-0.000500	0.098196
	18.600000	0.289936	-0.000448	0.098195
	18.700000	0.287055	-0.000517	0.098198
	18.800000	0.287772	-0.000533	0.098196
	18.900000	0.287574	-0.000556	0.098190
	19.000000	0.288618	-0.000283	0.098200
	19.100000	0.287836	-0.000155	0.098199
	19.200000	0.288438	-0.000204	0.098192
	19.300000	0.289063	-0.000388	0.098198
	19.400000	0.287317	-0.000382	0.098192
	19.500000	0.287808	-0.000339	0.098197
	19.600000	0.287209	-0.000454	0.098203
	19.700000	0.286833	-0.000401	0.098201
	19.800000	0.286473	-0.000385	0.098204
	19.900000	0.287055	-0.000425	0.098209
	20.000000	0.287483	-0.000434	0.098193
	20.100000	0.286286	-0.000411	0.098197
	20.200000	0.286951	-0.000418	0.098200
	20.300000	0.288195	-0.000329	0.098202
	20.400000	0.287316	-0.000237	0.098189
	20.500000	0.285690	-0.000290	0.098194
	20.600000	0.287320	-0.000234	0.098199
	20.700000	0.285414	-0.000428	0.098199
	20.800000	0.285829	-3.641033E-5	0.098193
	20.900000	0.284834	-0.000240	0.098199
	21.000000	0.286269	-0.000332	0.098202
	21.100000	0.285228	-0.000244	0.098201
	21.200000	0.285636	-0.000230	0.098204
	21.300000	0.286326	-0.000207	0.098196
	21.400000	0.285073	-0.000240	0.098200
	21.500000	0.286556	-0.000178	0.098199
	21.600000	0.284964	-0.000175	0.098203
	21.700000	0.285548	-0.000253	0.098197
	21.800000	0.285168	-0.000319	0.098202
	21.900000	0.286242	-0.000217	0.098197
	22.000000	0.284967	-0.000378	0.098197
	22.100000	0.284951	-0.000434	0.098206
	22.200000	0.285883	-0.000375	0.098197
	22.300000	0.286152	-0.000290	0.098203
	22.400000	0.284116	-0.000296	0.098193
	22.500000	0.286345	-0.000214	0.098199
	22.600000	0.286393	-0.000247	0.098204
	22.700000	0.285951	-0.000290	0.098204
	22.800000	0.287040	-0.000408	0.098203
	22.900000	0.284576	-0.000372	0.098196
	23.000000	0.287664	-0.000388	0.098196
	23.100000	0.286321	-0.000388	0.098195
	23.200000	0.286160	-0.000392	0.098197
	23.300000	0.286932	-0.000388	0.098199
	23.400000	0.286934	-0.000372	0.098190
	23.500000	0.286434	-0.000283	0.098201
	23.600000	0.285953	-0.000349	0.098199
	23.700000	0.287375	-0.000408	0.098195
	23.800000	0.286673	-0.000434	0.098198
	23.900000	0.286951	-0.000286	0.098197
	24.000000	0.287607	-0.000362	0.098200
	24.100000	0.286375	-0.000359	0.098200
	24.200000	0.287064	-0.000277	0.098200
	24.300000	0.286414	-0.000326	0.098192
	24.400000	0.285971	-0.000392	0.098203
	24.500000	0.287395	-0.000362	0.098194
	24.600000	0.286651	-0.000464	0.098201
	24.700000	0.290451	-0.000490	0.098200
	24.800000	0.286357	-0.000401	0.098198
	24.900000	0.289126	-0.000378	0.098198
	25.000000	0.287228	-0.000467	0.098197
	25.100000	0.287445	-7.258990E-5	0.098200
	25.200000	0.287758	-0.000425	0.098198
	25.300000	0.288965	-0.000645	0.098195
	25.400000	0.286725	-0.000431	0.098202
	25.500000	0.286390	-0.000421	0.098192
	25.600000	0.288499	-0.000395	0.098202
	25.700000	0.287249	-0.000385	0.098202
	25.800000	0.289912	-0.000240	0.098197
	25.900000	0.288423	-0.000290	0.098202
	26.000000	0.288433	-0.000490	0.098206
	26.100000	0.288081	-0.000135	0.098189
	26.200000	0.287201	-0.000142	0.098201
	26.300000	0.288898	-3.312127E-5	0.098207
	26.400000	0.289572	-5.943369E-5	0.098207
	26.500000	0.289862	-0.000507	0.098192
	26.600000	0.288991	-0.000507	0.098204
	26.700000	0.287290	-0.000421	0.098203
	26.800000	0.290001	-0.000428	0.098198
	26.900000	0.289299	-0.000398	0.098201
	27.000000	0.289070	-0.000500	0.098203
	27.100000	0.288547	-0.000316	0.098196
	27.200000	0.288600	-0.000237	0.098196
	27.300000	0.290159	-0.000421	0.098195
	27.400000	0.288746	-0.000441	0.098203
	27.500000	0.290150	-0.000441	0.098205
	27.600000	0.288907	-0.000158	0.098196
	27.700000	0.289342	-0.000240	0.098198
	27.800000	0.289417	-0.000457	0.098200
	27.900000	0.289877	-0.000448	0.098203
	28.000000	0.290425	-0.000431	0.098190
	28.100000	0.289777	-0.000441	0.098208
	28.200000	0.291234	-0.000375	0.098202
	28.300000	0.291114	-0.000510	0.098202
	28.400000	0.291935	-0.000480	0.098199
	28.500000	0.290261	-0.000221	0.098200
	28.600000	0.291696	-0.000303	0.098201
	28.700000	0.290372	-0.000319	0.098196
	28.800000	0.293075	-0.000300	0.098202
	28.900000	0.291666	-0.000339	0.098196
	29.000000	0.292381	-0.000480	0.098202
	29.100000	0.292708	-0.000382	0.098201
	29.200000	0.294693	-0.000227	0.098201
	29.300000	0.292970	-0.000421	0.098200
	29.400000	0.294448	-0.000434	0.098197
	29.500000	0.294876	-0.000362	0.098200
	29.600000	0.293556	-0.000484	0.098208
	29.700000	0.293601	-0.000349	0.098211
	29.800000	0.294220	-0.000323	0.098189
	29.900000	0.295739	-0.000385	0.098202
	30.000000	0.296079	-0.000359	0.098205
	30.100000	0.295733	-0.000313	0.098202
	30.200000	0.295483	-0.000372	0.098201
	30.300000	0.294091	-0.000332	0.098198
	30.400000	0.293729	-0.000401	0.098201
	30.500000	0.293934	-0.000543	0.098205
	30.600000	0.295394	-0.000523	0.098199
	30.700000	0.294458	-0.000573	0.098192
	30.800000	0.294230	-0.000247	0.097149
	30.900000	0.293835	-0.000467	0.098200
	31.000000	0.293602	-0.000471	0.098195
	31.100000	0.294233	-0.000415	0.098198
	31.200000	0.294431	-0.000454	0.098205
	31.300000	0.295679	-0.000467	0.098200
	31.400000	0.292535	-0.000523	0.098204
	31.500000	0.295880	-0.000444	0.098199
	31.600000	0.296056	-0.000556	0.098201
	31.700000	0.296759	-0.000510	0.098202
	31.800000	0.296031	-0.000484	0.098207
	31.900000	0.296249	-0.000451	0.098202
	32.000000	0.297586	-0.000369	0.098202
	32.100000	0.296673	-0.000421	0.098203
	32.200000	0.295688	-0.000553	0.098203
	32.300000	0.296871	-0.000500	0.098202
	32.400000	0.298653	-0.000408	0.098196
	32.500000	0.297265	-0.000339	0.098198
	32.600000	0.297014	-0.000214	0.098193
	32.700000	0.297736	-0.000198	0.098197
	32.800000	0.297698	-0.000191	0.098201
	32.900000	0.297822	-0.000369	0.098207
	33.000000	0.298444	-0.000513	0.098201
	33.100000	0.296984	-0.000434	0.098198
	33.200000	0.298662	-0.000530	0.098200
	33.300000	0.298932	-0.000477	0.098204
	33.400000	0.297261	-0.000464	0.098194
	33.500000	0.298484	-0.000461	0.098201
	33.600000	0.298544	-0.000441	0.098205
	33.700000	0.297042	-0.000270	0.098201
	33.800000	0.300805	-0.000382	0.098201
	33.900000	0.300391	-0.000477	0.098199
	34.000000	0.299388	-0.000388	0.098199
	34.100000	0.301135	-0.000309	0.098196
	34.200000	0.299883	-0.000382	0.098199
	34.300000	0.300279	-0.000392	0.098199
	34.400000	0.301777	-0.000497	0.098201
	34.500000	0.299777	-0.000349	0.098204
	34.600000	0.299226	-0.000365	0.098202
	34.700000	0.300779	-0.000411	0.098197
	34.800000	0.301319	-0.000441	0.098205
	34.900000	0.301394	-0.000438	0.098205
	35.000000	0.300705	-0.000579	0.098195
	35.100000	0.300734	-0.000388	0.098202
	35.200000	0.298961	-0.000457	0.098202
	35.300000	0.299026	-0.000395	0.098202
	35.400000	0.300339	-0.000355	0.098203
	35.500000	0.300225	-0.000425	0.098200
	35.600000	0.298264	-0.000346	0.098205
	35.700000	0.301770	-0.000448	0.098204
	35.800000	0.301913	-0.000507	0.098195
	35.900000	0.301066	-0.000425	0.098198
	36.000000	0.302457	-0.000280	0.098207
	36.100000	0.301498	-0.000369	0.098203
	36.200000	0.299756	-0.000260	0.098202
	36.300000	0.302239	-0.000431	0.098197
	36.400000	0.302668	-0.000563	0.098207
	36.500000	0.303059	-0.000306	0.098201
	36.600000	0.301968	-0.000378	0.098203
	36.700000	0.304397	-0.000332	0.098196
	36.800000	0.303886	-0.000405	0.098206
	36.900000	0.303955	-0.000385	0.098201
	37.000000	0.302223	-0.000303	0.098203
	37.100000	0.303850	-0.000408	0.098205
	37.200000	0.304263	-0.000405	0.098207
	37.300000	0.306035	-0.000359	0.098200
	37.400000	0.306678	-0.000352	0.098204
	37.500000	0.304074	-0.000401	0.098204
	37.600000	0.305051	-0.000369	0.098205
	37.700000	0.303789	-0.000438	0.098199
	37.800000	0.306648	-0.000184	0.098209
	37.900000	0.305168	-0.000207	0.098196
	38.000000	0.304722	-0.000280	0.098202
	38.100000	0.306220	-0.000102	0.098203
	38.200000	0.305535	-0.000543	0.098206
	38.300000	0.306981	-0.000395	0.098192
	38.400000	0.305443	-0.000369	0.098207
	38.500000	0.307012	-0.000313	0.098202
	38.600000	0.305746	-0.000378	0.098205
	38.700000	0.306819	-0.000323	0.098205
	38.800000	0.306827	-0.000184	0.098201
	38.900000	0.307661	-0.000405	0.098205
	39.000000	0.306414	-0.000503	0.098202
	39.100000	0.306417	-0.000421	0.098205
	39.200000	0.309446	-0.000569	0.098196
	39.300000	0.308917	-0.000392	0.098197
	39.400000	0.308671	-0.000378	0.098207
	39.500000	0.308939	-0.000474	0.098207
	39.600000	0.308964	-0.000263	0.098198
	39.700000	0.309862	-0.000270	0.098205
	39.800000	0.307396	-0.000303	0.098207
	39.900000	0.309715	-0.000224	0.098204
	40.000000	0.307754	-0.000309	0.098206
	40.100000	0.309659	-0.000316	0.098196
	40.200000	0.308877	-0.000401	0.098208
	40.300000	0.310931	-0.000448	0.098198
	40.400000	0.309025	-0.000388	0.098201
	40.500000	0.310454	-0.000372	0.098205
	40.600000	0.310264	-0.000494	0.098202
	40.700000	0.310083	-0.000490	0.098197
	40.800000	0.311912	-0.000464	0.098205
	40.900000	0.309608	-0.000480	0.098203
	41.000000	0.310179	-0.000415	0.098202
	41.100000	0.309463	-0.000415	0.098208
	41.200000	0.308278	-0.000382	0.098200
	41.300000	0.309733	-0.000494	0.098207
	41.400000	0.309616	-0.000250	0.098207
	41.500000	0.309431	-0.000378	0.098200
	41.600000	0.309610	-0.000270	0.098203
	41.700000	0.309019	-0.000375	0.098206
	41.800000	0.310798	-0.000280	0.098202
	41.900000	0.310128	-0.000398	0.098206
	42.000000	0.311518	-0.000517	0.098205
	42.100000	0.309141	-0.000336	0.098206
	42.200000	0.309110	-0.000355	0.098200
	42.300000	0.310751	-0.000326	0.098204
	42.400000	0.308661	-0.000530	0.098198
	42.500000	0.310289	-0.000428	0.098210
	42.600000	0.310916	-0.000418	0.098199
	42.700000	0.311394	-0.000425	0.098204
	42.800000	0.309968	-0.000263	0.098202
	42.900000	0.312079	-0.000431	0.098202
	43.000000	0.310632	-0.000296	0.098212
	43.100000	0.314028	-0.000401	0.098198
	43.200000	0.312670	-0.000339	0.098206
	43.300000	0.313689	-0.000401	0.098203
	43.400000	0.312439	-0.000300	0.098208
	43.500000	0.312979	-0.000313	0.098208
	43.600000	0.312609	-0.000319	0.098201
	43.700000	0.312625	-0.000359	0.098207
	43.800000	0.314111	-0.000326	0.098207
	43.900000	0.312899	-0.000359	0.098201
	44.000000	0.313126	-0.000428	0.098205
	44.100000	0.313990	-0.000346	0.098205
	44.200000	0.313094	-0.000444	0.098203
	44.300000	0.316402	-0.000444	0.098203
	44.400000	0.315661	-0.000451	0.098205
	44.500000	0.315990	-0.000378	0.098200
	44.600000	0.315419	-0.000319	0.098211
	44.700000	0.317087	-0.000480	0.098208
	44.800000	0.315747	-0.000382	0.098209
	44.900000	0.317322	-0.000237	0.098208
	45.000000	0.315479	-0.000372	0.098205
	45.100000	0.317512	-0.000369	0.098205
	45.200000	0.316421	-0.000484	0.098204
	45.300000	0.318806	-0.000392	0.098209
	45.400000	0.318971	-0.000273	0.098209
	45.500000	0.318021	-0.000392	0.098207
	45.600000	0.318625	-0.000441	0.098204
	45.700000	0.316713	-0.000355	0.098204
	45.800000	0.320463	-0.000441	0.098209
	45.900000	0.320329	-0.000448	0.098205
	46.000000	0.318041	-0.000316	0.098200
	46.100000	0.318633	-0.000451	0.098203
	46.200000	0.321158	-0.000411	0.098203
	46.300000	0.318650	-0.000454	0.098205
	46.400000	0.317693	-0.000457	0.098205
	46.500000	0.321370	-0.000382	0.098213
	46.600000	0.319618	-0.000461	0.098204
	46.700000	0.319198	-0.000378	0.098203
	46.800000	0.318565	-0.000293	0.098206
	46.900000	0.318540	-0.000418	0.098210
	47.000000	0.321196	-0.000411	0.098204
	47.100000	0.318543	-0.000342	0.098205
	47.200000	0.321018	-0.000250	0.098211
	47.300000	0.319698	-0.000385	0.098208
	47.400000	0.322571	-0.000385	0.098203
	47.500000	0.321522	-0.000385	0.098204
	47.600000	0.321655	-0.000375	0.098199
	47.700000	0.321315	-0.000207	0.098205
	47.800000	0.323155	-0.000253	0.098205
	47.900000	0.323732	-0.000326	0.098207
	48.000000	0.323646	-0.000293	0.098200
	48.100000	0.321147	-0.000395	0.098206
	48.200000	0.320543	-0.000589	0.098208
	48.300000	0.321737	-0.000530	0.098201
	48.400000	0.323662	-0.000365	0.098216
	48.500000	0.321484	-0.000540	0.098208
	48.600000	0.322619	-0.000441	0.098206
	48.700000	0.322734	-0.000401	0.098200
	48.800000	0.323135	-0.000408	0.098199
	48.900000	0.323056	-0.000385	0.098206
	49.000000	0.325299	-0.000533	0.098206
	49.100000	0.323986	-0.000507	0.098208
	49.200000	0.322944	-0.000480	0.098207
	49.300000	0.324558	-0.000533	0.098206
	49.400000	0.325583	-0.000355	0.098210
	49.500000	0.325591	-0.000365	0.098209
