LabVIEW Measurement	
Writer_Version	2
Reader_Version	2
Separator	Tab
Decimal_Separator	.
Multi_Headings	Yes
X_Columns	No
Time_Pref	Relative
Operator	stud40
Description	Saved t, TC, RISC, PT100
Date	2023/03/21
Time	18:50:24.741123199462890625
***End_of_Header***	
	
Channels	4				
Samples	1200	1200	1200	1200	
Date	2023/03/21	2023/03/21	2023/03/21	2023/03/21	
Time	18:50:24.741123199462890625	18:50:24.741123199462890625	18:50:24.741123199462890625	18:50:24.741123199462890625	
X_Dimension	Time	Time	Time	Time	
X0	0.0000000000000000E+0	0.0000000000000000E+0	0.0000000000000000E+0	0.0000000000000000E+0	
Delta_X	1.000000	1.000000	1.000000	1.000000	
***End_of_Header***					
X_Value	Untitled	Untitled 1	Untitled 2	Untitled 3	Comment
	0.000000	0.381007	-0.000138	0.098189
	0.100000	0.380589	-5.285559E-5	0.098194
	0.200000	0.381186	-0.000122	0.098190
	0.300000	0.382748	-0.000115	0.098196
	0.400000	0.380028	-0.000336	0.098192
	0.500000	0.380308	-9.890231E-5	0.098193
	0.600000	0.382176	-0.000257	0.098191
	0.700000	0.380897	-0.000596	0.098191
	0.800000	0.379507	-0.000628	0.098191
	0.900000	0.379972	-0.000635	0.098196
	1.000000	0.381541	5.520784	0.098200
	1.100000	0.379515	9.920251	0.098189
	1.200000	0.381425	9.919310	0.098194
	1.300000	0.379479	9.919143	0.098187
	1.400000	0.380448	9.919139	0.098192
	1.500000	0.383526	9.919093	0.098192
	1.600000	0.381610	9.919330	0.098188
	1.700000	0.381072	9.919294	0.098195
	1.800000	0.379079	9.919422	0.098192
	1.900000	0.379454	9.919491	0.098192
	2.000000	0.380793	2.540695	0.098182
	2.100000	0.379968	-0.000398	0.098197
	2.200000	0.378464	-0.000401	0.098193
	2.300000	0.380357	-0.000201	0.098191
	2.400000	0.376763	-0.000316	0.098192
	2.500000	0.381410	-0.000349	0.098194
	2.600000	0.380642	-0.000382	0.098191
	2.700000	0.381641	-0.000375	0.098193
	2.800000	0.378702	-0.000582	0.098188
	2.900000	0.380056	-0.000372	0.098196
	3.000000	0.380519	-0.000405	0.098187
	3.100000	0.383349	-0.000566	0.098191
	3.200000	0.379546	-0.000444	0.098189
	3.300000	0.380809	-0.000477	0.098185
	3.400000	0.379974	-0.000474	0.098198
	3.500000	0.378931	-0.000415	0.098192
	3.600000	0.381015	-0.000579	0.098193
	3.700000	0.382936	-0.000434	0.098191
	3.800000	0.380895	-0.000346	0.098189
	3.900000	0.380411	-0.000582	0.098195
	4.000000	0.379091	-0.000349	0.098192
	4.100000	0.380206	-0.000349	0.098188
	4.200000	0.379194	-0.000309	0.098191
	4.300000	0.377271	-0.000425	0.098202
	4.400000	0.379167	-0.000421	0.098194
	4.500000	0.378570	-0.000454	0.098184
	4.600000	0.378747	-0.000385	0.098186
	4.700000	0.380212	-0.000355	0.098189
	4.800000	0.379638	-0.000342	0.098189
	4.900000	0.379733	-0.000372	0.098194
	5.000000	0.376634	-0.000300	0.098192
	5.100000	0.377543	-0.000329	0.098190
	5.200000	0.376581	-0.000385	0.098193
	5.300000	0.375397	-0.000418	0.098190
	5.400000	0.378409	-0.000451	0.098199
	5.500000	0.375323	-0.000441	0.098194
	5.600000	0.375594	-0.000444	0.098196
	5.700000	0.373505	-0.000523	0.098194
	5.800000	0.374216	-0.000494	0.098188
	5.900000	0.372290	-0.000586	0.098195
	6.000000	0.374138	-0.000441	0.098192
	6.100000	0.371963	-0.000352	0.098192
	6.200000	0.370498	-0.000500	0.098198
	6.300000	0.371451	-0.000484	0.098191
	6.400000	0.369260	-0.000398	0.098193
	6.500000	0.370343	-0.000401	0.098189
	6.600000	0.367080	-0.000444	0.098191
	6.700000	0.366948	-0.000438	0.098191
	6.800000	0.364529	-0.000273	0.098190
	6.900000	0.366224	-0.000375	0.098193
	7.000000	0.363884	-0.000339	0.098194
	7.100000	0.361265	-0.000244	0.098191
	7.200000	0.360521	-0.000313	0.098190
	7.300000	0.361065	-0.000319	0.098194
	7.400000	0.360726	-0.000329	0.098195
	7.500000	0.360053	-0.000332	0.098196
	7.600000	0.358479	-0.000277	0.098195
	7.700000	0.356354	-0.000428	0.098192
	7.800000	0.356324	-0.000487	0.098190
	7.900000	0.356207	-0.000398	0.098193
	8.000000	0.354603	-0.000283	0.098192
	8.100000	0.350025	-0.000359	0.098190
	8.200000	0.350604	-0.000319	0.098193
	8.300000	0.350081	-0.000362	0.098199
	8.400000	0.350006	-0.000372	0.098193
	8.500000	0.349641	-0.000313	0.098190
	8.600000	0.350334	-0.000286	0.098188
	8.700000	0.347747	-0.000283	0.098184
	8.800000	0.344901	-0.000395	0.098190
	8.900000	0.344711	-0.000211	0.098201
	9.000000	0.344101	-0.000257	0.098187
	9.100000	0.342923	-0.000283	0.098190
	9.200000	0.341432	-0.000375	0.098192
	9.300000	0.340732	-0.000270	0.098193
	9.400000	0.340265	-0.000267	0.098189
	9.500000	0.338217	-0.000217	0.098192
	9.600000	0.338003	-0.000280	0.098194
	9.700000	0.337003	-0.000296	0.098192
	9.800000	0.338142	-0.000201	0.098192
	9.900000	0.331390	-0.000230	0.098193
	10.000000	0.332827	-0.000257	0.098195
	10.100000	0.330583	-0.000359	0.098189
	10.200000	0.334595	-0.000428	0.098193
	10.300000	0.328489	-0.000263	0.098187
	10.400000	0.329024	-0.000240	0.098192
	10.500000	0.329539	-0.000237	0.098195
	10.600000	0.329085	-0.000283	0.098193
	10.700000	0.326434	-0.000355	0.098186
	10.800000	0.328193	-0.000323	0.098186
	10.900000	0.326114	-0.000388	0.098192
	11.000000	0.325674	-0.000319	0.098193
	11.100000	0.325295	-0.000421	0.098190
	11.200000	0.325329	-0.000382	0.098190
	11.300000	0.324467	-0.000352	0.098192
	11.400000	0.323017	-0.000319	0.098187
	11.500000	0.321912	-0.000293	0.098195
	11.600000	0.321579	-0.000290	0.098188
	11.700000	0.321287	-0.000296	0.098204
	11.800000	0.320367	-0.000411	0.098189
	11.900000	0.318211	-0.000405	0.098191
	12.000000	0.319733	-0.000306	0.098192
	12.100000	0.318754	-0.000280	0.098191
	12.200000	0.316268	-0.000336	0.098189
	12.300000	0.316571	-0.000352	0.098193
	12.400000	0.315382	-0.000556	0.098186
	12.500000	0.316915	-0.000382	0.098193
	12.600000	0.314309	8.528459E-5	0.098195
	12.700000	0.315726	-0.000181	0.098187
	12.800000	0.313325	-0.000415	0.098194
	12.900000	0.312838	-0.000359	0.098182
	13.000000	0.312546	-0.000369	0.098187
	13.100000	0.312418	-0.000434	0.098185
	13.200000	0.310606	-0.000408	0.098189
	13.300000	0.310688	-0.000444	0.098199
	13.400000	0.310738	-0.000385	0.098192
	13.500000	0.309868	-0.000332	0.098020
	13.600000	0.309564	-0.000461	0.098193
	13.700000	0.308877	-0.000398	0.098187
	13.800000	0.307099	-0.000309	0.098190
	13.900000	0.308745	-0.000214	0.098186
	14.000000	0.307409	-0.000309	0.098191
	14.100000	0.306782	-0.000431	0.098192
	14.200000	0.307841	-0.000316	0.098191
	14.300000	0.304410	-0.000365	0.098193
	14.400000	0.304804	-0.000385	0.098189
	14.500000	0.306152	-0.000415	0.098192
	14.600000	0.305604	-0.000346	0.098186
	14.700000	0.302382	-0.000283	0.098194
	14.800000	0.304945	-0.000326	0.098187
	14.900000	0.305066	-0.000207	0.098191
	15.000000	0.305446	-0.000375	0.098191
	15.100000	0.303362	-0.000323	0.098189
	15.200000	0.302348	-0.000401	0.098189
	15.300000	0.302599	-0.000369	0.098196
	15.400000	0.300631	-0.000349	0.098188
	15.500000	0.301566	-0.000352	0.098196
	15.600000	0.301679	-0.000355	0.098192
	15.700000	0.301096	-0.000401	0.098196
	15.800000	0.302368	-0.000290	0.098187
	15.900000	0.300999	-0.000277	0.098194
	16.000000	0.300495	-0.000339	0.098192
	16.100000	0.297687	-0.000326	0.098188
	16.200000	0.300133	-0.000300	0.098192
	16.300000	0.300589	-0.000323	0.098185
	16.400000	0.299537	-0.000224	0.098192
	16.500000	0.299646	-0.000105	0.098187
	16.600000	0.300106	-8.903516E-5	0.098195
	16.700000	0.298258	-0.000296	0.098185
	16.800000	0.299728	-0.000240	0.098197
	16.900000	0.295613	-0.000132	0.098189
	17.000000	0.297230	-0.000165	0.098192
	17.100000	0.297234	-0.000257	0.098189
	17.200000	0.295358	-0.000148	0.098193
	17.300000	0.297892	-0.000184	0.098187
	17.400000	0.296743	-0.000181	0.098186
	17.500000	0.296015	-0.000395	0.098192
	17.600000	0.296593	-0.000277	0.098191
	17.700000	0.298858	-0.000326	0.098194
	17.800000	0.297063	-0.000365	0.098194
	17.900000	0.295694	-0.000415	0.098197
	18.000000	0.295230	-0.000408	0.098189
	18.100000	0.295908	-0.000497	0.098191
	18.200000	0.295308	-0.000411	0.098198
	18.300000	0.297081	-0.000355	0.098186
	18.400000	0.296086	-0.000349	0.098186
	18.500000	0.293395	-0.000362	0.098193
	18.600000	0.295326	-0.000484	0.098184
	18.700000	0.296051	-0.000553	0.098189
	18.800000	0.296731	-0.000438	0.098190
	18.900000	0.294436	-0.000313	0.098191
	19.000000	0.296631	-0.000234	0.098186
	19.100000	0.293601	-0.000306	0.098189
	19.200000	0.293637	-0.000230	0.098191
	19.300000	0.293797	-0.000112	0.098187
	19.400000	0.294525	-0.000309	0.098193
	19.500000	0.294149	-0.000418	0.098189
	19.600000	0.294416	-0.000207	0.098188
	19.700000	0.296604	-0.000267	0.098192
	19.800000	0.295476	-0.000293	0.098187
	19.900000	0.292687	-0.000332	0.098192
	20.000000	0.293536	-0.000207	0.098186
	20.100000	0.294289	-0.000286	0.098191
	20.200000	0.295653	-0.000224	0.098190
	20.300000	0.293675	-0.000158	0.098190
	20.400000	0.293885	-0.000178	0.098186
	20.500000	0.295686	-0.000227	0.098189
	20.600000	0.293611	-0.000359	0.098194
	20.700000	0.292736	-0.000395	0.098190
	20.800000	0.294516	-0.000250	0.098183
	20.900000	0.294880	-0.000253	0.098186
	21.000000	0.295944	-0.000346	0.098186
	21.100000	0.292892	-0.000434	0.098190
	21.200000	0.296069	-0.000171	0.098190
	21.300000	0.295634	-0.000142	0.098184
	21.400000	0.295831	-0.000378	0.098188
	21.500000	0.294619	-0.000421	0.098190
	21.600000	0.295410	-0.000421	0.098188
	21.700000	0.294176	-0.000132	0.098184
	21.800000	0.294045	-0.000303	0.098198
	21.900000	0.295746	-0.000362	0.098190
	22.000000	0.294481	-0.000234	0.098194
	22.100000	0.295217	-0.000253	0.098196
	22.200000	0.294788	-0.000260	0.098191
	22.300000	0.293797	-0.000240	0.098191
	22.400000	0.295918	-0.000339	0.098186
	22.500000	0.295179	-0.000237	0.098186
	22.600000	0.295528	-0.000290	0.098194
	22.700000	0.296276	-0.000267	0.098188
	22.800000	0.295663	-0.000230	0.098184
	22.900000	0.295111	-0.000194	0.098192
	23.000000	0.297681	-0.000293	0.098185
	23.100000	0.295455	-0.000306	0.098189
	23.200000	0.296995	-0.000253	0.098192
	23.300000	0.294275	-0.000201	0.098189
	23.400000	0.295119	-0.000303	0.098189
	23.500000	0.296936	-0.000244	0.098184
	23.600000	0.295049	-0.000303	0.098186
	23.700000	0.297522	-0.000309	0.098192
	23.800000	0.298329	-0.000359	0.098195
	23.900000	0.299024	-0.000267	0.098187
	24.000000	0.297399	-0.000293	0.098192
	24.100000	0.297424	-0.000375	0.098185
	24.200000	0.296178	-0.000263	0.098187
	24.300000	0.296772	-0.000247	0.098187
	24.400000	0.298287	-0.000267	0.098188
	24.500000	0.296959	-0.000184	0.098191
	24.600000	0.298009	-0.000339	0.098187
	24.700000	0.296770	-0.000270	0.098189
	24.800000	0.298698	-0.000240	0.098193
	24.900000	0.294847	-0.000293	0.098189
	25.000000	0.296790	-0.000240	0.098191
	25.100000	0.296527	-0.000316	0.098189
	25.200000	0.296929	-0.000221	0.098181
	25.300000	0.298419	-0.000145	0.098186
	25.400000	0.298342	-0.000168	0.098185
	25.500000	0.298762	-0.000309	0.098190
	25.600000	0.299741	-0.000201	0.098193
	25.700000	0.297115	-0.000201	0.098188
	25.800000	0.297655	-0.000319	0.098196
	25.900000	0.297178	-0.000188	0.098185
	26.000000	0.297515	-0.000257	0.098185
	26.100000	0.298216	-0.000293	0.098190
	26.200000	0.297962	-0.000280	0.098183
	26.300000	0.296728	-0.000352	0.098186
	26.400000	0.295827	-0.000434	0.098188
	26.500000	0.296379	-0.000194	0.098190
	26.600000	0.300182	-0.000201	0.098186
	26.700000	0.296385	-0.000224	0.098186
	26.800000	0.296389	-0.000385	0.098187
	26.900000	0.298272	-0.000296	0.098102
	27.000000	0.298367	-0.000198	0.098185
	27.100000	0.298576	-0.000257	0.098188
	27.200000	0.301697	-0.000385	0.098195
	27.300000	0.298008	-0.000316	0.098186
	27.400000	0.299722	-0.000329	0.098183
	27.500000	0.299913	-0.000382	0.098185
	27.600000	0.302416	-0.000286	0.098184
	27.700000	0.299702	-0.000454	0.098189
	27.800000	0.300738	-0.000490	0.098191
	27.900000	0.298367	-0.000563	0.098189
	28.000000	0.299478	-0.000503	0.098188
	28.100000	0.298431	-0.000332	0.098180
	28.200000	0.299259	-0.000507	0.098191
	28.300000	0.299609	-0.000332	0.098190
	28.400000	0.301082	-0.000332	0.098189
	28.500000	0.299600	-0.000378	0.098183
	28.600000	0.300833	-0.000280	0.098183
	28.700000	0.300517	-0.000290	0.098187
	28.800000	0.300085	-0.000273	0.098190
	28.900000	0.301720	-0.000296	0.098189
	29.000000	0.300474	-0.000398	0.098182
	29.100000	0.299981	-0.000323	0.098186
	29.200000	0.301254	-0.000372	0.098185
	29.300000	0.300610	-0.000313	0.098192
	29.400000	0.301863	-0.000270	0.098189
	29.500000	0.302109	-0.000303	0.098189
	29.600000	0.299906	-0.000267	0.098192
	29.700000	0.302037	-0.000326	0.098191
	29.800000	0.301915	-0.000217	0.098186
	29.900000	0.301349	-0.000273	0.098191
	30.000000	0.301351	-0.000234	0.098188
	30.100000	0.302356	-0.000234	0.098190
	30.200000	0.305006	-0.000346	0.098187
	30.300000	0.303373	-0.000237	0.098187
	30.400000	0.303950	-0.000283	0.098186
	30.500000	0.303381	-0.000119	0.098190
	30.600000	0.303366	-0.000336	0.098189
	30.700000	0.301660	-0.000319	0.098182
	30.800000	0.301852	-0.000227	0.098182
	30.900000	0.303259	-0.000359	0.098187
	31.000000	0.302694	-0.000280	0.098186
	31.100000	0.301493	-0.000309	0.098188
	31.200000	0.305429	-0.000359	0.098183
	31.300000	0.304223	-0.000339	0.098186
	31.400000	0.307401	-0.000267	0.098194
	31.500000	0.305308	-0.000415	0.098183
	31.600000	0.304012	-0.000421	0.098191
	31.700000	0.305440	-0.000336	0.098183
	31.800000	0.304229	-0.000253	0.098185
	31.900000	0.304986	-0.000240	0.098190
	32.000000	0.303107	-0.000323	0.098193
	32.100000	0.305689	-0.000336	0.098184
	32.200000	0.305107	-0.000244	0.098182
	32.300000	0.306609	-0.000296	0.098187
	32.400000	0.306590	-0.000434	0.098194
	32.500000	0.307480	-0.000438	0.098185
	32.600000	0.307065	-0.000438	0.098185
	32.700000	0.305597	-0.000188	0.098186
	32.800000	0.306817	-0.000194	0.098187
	32.900000	0.307213	-0.000602	0.098191
	33.000000	0.306605	-0.000398	0.098181
	33.100000	0.306997	-0.000526	0.098185
	33.200000	0.309117	-0.000530	0.098189
	33.300000	0.308591	-0.000467	0.098189
	33.400000	0.308294	-0.000520	0.098185
	33.500000	0.307862	-0.000326	0.098188
	33.600000	0.309490	-0.000526	0.098191
	33.700000	0.308104	-0.000392	0.098191
	33.800000	0.307819	-0.000392	0.098193
	33.900000	0.308044	-0.000290	0.098184
	34.000000	0.310903	-0.000336	0.098182
	34.100000	0.308844	-0.000349	0.098189
	34.200000	0.308603	-0.000401	0.098191
	34.300000	0.308579	-0.000342	0.098190
	34.400000	0.310343	-0.000392	0.098186
	34.500000	0.307532	-0.000329	0.098184
	34.600000	0.309671	-0.000382	0.098186
	34.700000	0.309075	-0.000280	0.098186
	34.800000	0.311587	-0.000332	0.098194
	34.900000	0.309766	-0.000303	0.098189
	35.000000	0.310445	-0.000349	0.098187
	35.100000	0.308971	-0.000323	0.098188
	35.200000	0.311869	-0.000323	0.098188
	35.300000	0.312367	-0.000336	0.098185
	35.400000	0.312986	-0.000277	0.098187
	35.500000	0.310587	-0.000444	0.098186
	35.600000	0.311964	-0.000339	0.098192
	35.700000	0.311442	-0.000296	0.098186
	35.800000	0.310526	-0.000346	0.098186
	35.900000	0.312778	-0.000467	0.098183
	36.000000	0.312877	-0.000280	0.098194
	36.100000	0.312875	-0.000290	0.098187
	36.200000	0.313638	-0.000372	0.098188
	36.300000	0.312576	-0.000240	0.098196
	36.400000	0.314628	-0.000224	0.098184
	36.500000	0.314591	-0.000260	0.098192
	36.600000	0.312060	-0.000286	0.098186
	36.700000	0.313764	-0.000273	0.098184
	36.800000	0.313729	-0.000260	0.098187
	36.900000	0.315228	-0.000306	0.098192
	37.000000	0.313064	-0.000175	0.098186
	37.100000	0.315530	-0.000309	0.098192
	37.200000	0.314704	-0.000323	0.098190
	37.300000	0.313642	-0.000296	0.098187
	37.400000	0.315095	-0.000204	0.098187
	37.500000	0.315591	-0.000365	0.098188
	37.600000	0.314667	-0.000392	0.098183
	37.700000	0.314474	-0.000332	0.098187
	37.800000	0.315765	-0.000369	0.098185
	37.900000	0.315741	-0.000329	0.098189
	38.000000	0.315525	-0.000471	0.098186
	38.100000	0.315460	-0.000346	0.098187
	38.200000	0.315227	-0.000362	0.098189
	38.300000	0.315540	-0.000431	0.098187
	38.400000	0.317564	-0.000507	0.098185
	38.500000	0.317804	-0.000405	0.098190
	38.600000	0.318055	-0.000339	0.098188
	38.700000	0.316381	-0.000250	0.098187
	38.800000	0.317058	-0.000418	0.098186
	38.900000	0.316840	-0.000395	0.098188
	39.000000	0.317955	-0.000313	0.098191
	39.100000	0.316209	-0.000395	0.098183
	39.200000	0.316280	-0.000395	0.098181
	39.300000	0.319379	-0.000250	0.098184
	39.400000	0.317443	-0.000145	0.098184
	39.500000	0.317011	-0.000138	0.098188
	39.600000	0.316396	-0.000178	0.098190
	39.700000	0.319146	-0.000227	0.098189
	39.800000	0.316911	-0.000240	0.098193
	39.900000	0.317509	-0.000434	0.098191
	40.000000	0.318394	-0.000365	0.098193
	40.100000	0.319171	-0.000365	0.098183
	40.200000	0.317101	-0.000319	0.098186
	40.300000	0.318441	-0.000267	0.098184
	40.400000	0.319084	-0.000319	0.098186
	40.500000	0.318080	-0.000260	0.098148
	40.600000	0.318481	-0.000227	0.098190
	40.700000	0.318036	-0.000362	0.098188
	40.800000	0.319765	-0.000296	0.098188
	40.900000	0.319142	-0.000221	0.098189
	41.000000	0.319827	-0.000319	0.098188
	41.100000	0.320946	-0.000277	0.098189
	41.200000	0.320787	-0.000290	0.098183
	41.300000	0.320233	-0.000283	0.098184
	41.400000	0.319352	-0.000280	0.098188
	41.500000	0.319935	-0.000217	0.098192
	41.600000	0.320507	-0.000293	0.098179
	41.700000	0.320068	-0.000277	0.098186
	41.800000	0.320768	-0.000342	0.098187
	41.900000	0.320132	-0.000306	0.098182
	42.000000	0.320228	-0.000365	0.098182
	42.100000	0.320996	-0.000260	0.098180
	42.200000	0.321294	-0.000270	0.098186
	42.300000	0.322341	-0.000300	0.098186
	42.400000	0.321978	-0.000125	0.098193
	42.500000	0.322206	-0.000280	0.098194
	42.600000	0.320266	-0.000227	0.098194
	42.700000	0.320679	-0.000257	0.098191
	42.800000	0.322265	-0.000194	0.098181
	42.900000	0.320822	-0.000303	0.098185
	43.000000	0.323366	-0.000303	0.098192
	43.100000	0.324747	-0.000270	0.098184
	43.200000	0.323782	-0.000198	0.098187
	43.300000	0.322452	-0.000194	0.098186
	43.400000	0.323999	-0.000267	0.098184
	43.500000	0.324385	-0.000313	0.098189
	43.600000	0.324055	-0.000349	0.098188
	43.700000	0.323736	-0.000309	0.098191
	43.800000	0.324721	-0.000369	0.098186
	43.900000	0.325617	-0.000260	0.098184
	44.000000	0.324402	-0.000178	0.098184
	44.100000	0.324535	-0.000198	0.098179
	44.200000	0.323623	-0.000296	0.098186
	44.300000	0.323384	-0.000267	0.098186
	44.400000	0.324606	-0.000421	0.098186
	44.500000	0.323538	-0.000408	0.098188
	44.600000	0.326314	-0.000332	0.098183
	44.700000	0.324426	-0.000428	0.098187
	44.800000	0.323560	-0.000300	0.098184
	44.900000	0.326161	-0.000263	0.098184
	45.000000	0.321898	-0.000313	0.098180
	45.100000	0.323842	-0.000362	0.098185
	45.200000	0.324246	-0.000323	0.098185
	45.300000	0.325310	-0.000369	0.098189
	45.400000	0.326596	-0.000277	0.098183
	45.500000	0.326800	-9.890231E-5	0.098185
	45.600000	0.324669	-0.000319	0.098184
	45.700000	0.325319	-0.000253	0.098192
	45.800000	0.326026	-0.000247	0.098185
	45.900000	0.326585	-0.000293	0.098183
	46.000000	0.328597	-0.000306	0.098188
	46.100000	0.327034	-0.000267	0.098185
	46.200000	0.325604	-0.000332	0.098184
	46.300000	0.327606	-0.000401	0.098184
	46.400000	0.326109	-0.000461	0.098187
	46.500000	0.329655	-0.000332	0.098177
	46.600000	0.327705	-0.000257	0.098184
	46.700000	0.329649	-0.000372	0.098185
	46.800000	0.327765	-0.000339	0.098185
	46.900000	0.327758	-0.000277	0.098184
	47.000000	0.328494	-0.000171	0.098178
	47.100000	0.328055	-0.000283	0.098189
	47.200000	0.329495	-0.000323	0.098186
	47.300000	0.326834	-0.000227	0.098190
	47.400000	0.328403	-0.000355	0.098184
	47.500000	0.328917	-0.000270	0.098189
	47.600000	0.329045	-0.000382	0.098185
	47.700000	0.329503	-0.000448	0.098181
	47.800000	0.326773	-0.000286	0.098186
	47.900000	0.330622	-0.000339	0.098179
	48.000000	0.328616	-0.000352	0.098186
	48.100000	0.332230	-0.000355	0.098188
	48.200000	0.330218	-0.000306	0.098185
	48.300000	0.331354	-0.000155	0.098182
	48.400000	0.329784	-0.000240	0.098183
	48.500000	0.330035	-0.000221	0.098185
	48.600000	0.329585	-0.000181	0.098181
	48.700000	0.331560	-0.000207	0.098183
	48.800000	0.332130	-8.245705E-5	0.098175
	48.900000	0.331269	-0.000145	0.098187
	49.000000	0.330474	-0.000135	0.098182
	49.100000	0.333709	-0.000204	0.098184
	49.200000	0.333470	-0.000326	0.098192
	49.300000	0.330628	-0.000227	0.098182
	49.400000	0.329396	-0.000237	0.098181
	49.500000	0.330622	-0.000171	0.098184
