LabVIEW Measurement	
Writer_Version	2
Reader_Version	2
Separator	Tab
Decimal_Separator	.
Multi_Headings	Yes
X_Columns	No
Time_Pref	Relative
Operator	stud40
Description	Saved t, TC, RISC, PT100
Date	2023/03/21
Time	19:03:39.7111430168151855469
***End_of_Header***	
	
Channels	4				
Samples	1200	1200	1200	1200	
Date	2023/03/21	2023/03/21	2023/03/21	2023/03/21	
Time	19:03:39.7111430168151855469	19:03:39.7111430168151855469	19:03:39.7111430168151855469	19:03:39.7111430168151855469	
X_Dimension	Time	Time	Time	Time	
X0	0.0000000000000000E+0	0.0000000000000000E+0	0.0000000000000000E+0	0.0000000000000000E+0	
Delta_X	1.000000	1.000000	1.000000	1.000000	
***End_of_Header***					
X_Value	Untitled	Untitled 1	Untitled 2	Untitled 3	Comment
	0.000000	0.384795	-0.000286	0.098073
	0.100000	0.384500	-0.000313	0.098090
	0.200000	0.382694	-0.000145	0.098076
	0.300000	0.384461	-0.000257	0.098081
	0.400000	0.383645	-0.000152	0.098076
	0.500000	0.384065	-0.000503	0.098078
	0.600000	0.382170	-0.000530	0.098081
	0.700000	0.384107	-0.000494	0.098080
	0.800000	0.382624	-0.000346	0.098077
	0.900000	0.384850	-0.000569	0.098081
	1.000000	0.383486	9.503595	0.098075
	1.100000	0.383536	9.934098	0.098080
	1.200000	0.383202	9.933450	0.098078
	1.300000	0.383924	9.933631	0.098073
	1.400000	0.385281	9.933749	0.098081
	1.500000	0.383533	3.396962	0.098074
	1.600000	0.384530	-0.000592	0.098075
	1.700000	0.384242	-0.000625	0.098082
	1.800000	0.384768	-0.000319	0.098075
	1.900000	0.386900	-0.000273	0.098072
	2.000000	0.384393	-0.000434	0.098079
	2.100000	0.384519	-0.000349	0.098079
	2.200000	0.385932	-0.000438	0.098079
	2.300000	0.384957	-0.000375	0.098076
	2.400000	0.385435	-0.000408	0.098074
	2.500000	0.386174	-0.000464	0.098084
	2.600000	0.384806	-0.000277	0.098075
	2.700000	0.384185	-0.000303	0.098077
	2.800000	0.383414	-0.000355	0.098077
	2.900000	0.384342	-0.000352	0.098083
	3.000000	0.385506	-0.000319	0.098070
	3.100000	0.382429	-0.000286	0.098074
	3.200000	0.382358	-0.000323	0.098077
	3.300000	0.384243	-0.000395	0.098080
	3.400000	0.382737	-0.000392	0.098078
	3.500000	0.383258	-0.000467	0.098082
	3.600000	0.383198	-0.000332	0.098074
	3.700000	0.383302	-0.000415	0.098076
	3.800000	0.381545	-0.000323	0.098083
	3.900000	0.384512	-0.000461	0.098079
	4.000000	0.382874	-0.000405	0.098085
	4.100000	0.382735	-0.000273	0.098075
	4.200000	0.382491	-0.000421	0.098079
	4.300000	0.384327	-0.000428	0.098074
	4.400000	0.381115	-0.000467	0.098078
	4.500000	0.381862	-0.000467	0.098081
	4.600000	0.379747	-0.000415	0.098082
	4.700000	0.382919	-0.000411	0.098082
	4.800000	0.381033	-0.000342	0.098077
	4.900000	0.380330	-0.000244	0.098075
	5.000000	0.382401	-0.000454	0.098068
	5.100000	0.383127	-0.000306	0.098074
	5.200000	0.380462	-0.000234	0.098077
	5.300000	0.381248	-0.000349	0.098076
	5.400000	0.380978	-0.000365	0.098082
	5.500000	0.380829	-0.000277	0.098078
	5.600000	0.379477	-0.000405	0.098088
	5.700000	0.380071	-0.000342	0.098079
	5.800000	0.379934	-0.000316	0.098078
	5.900000	0.379486	-0.000359	0.098081
	6.000000	0.378389	-0.000418	0.098078
	6.100000	0.377418	-0.000372	0.098076
	6.200000	0.379644	-0.000559	0.098076
	6.300000	0.377490	-0.000464	0.098073
	6.400000	0.377040	-0.000408	0.098072
	6.500000	0.375404	-0.000369	0.098080
	6.600000	0.374587	-0.000369	0.098078
	6.700000	0.372397	-0.000388	0.098080
	6.800000	0.373019	-0.000372	0.098070
	6.900000	0.373096	-0.000362	0.098077
	7.000000	0.373629	-0.000648	0.098073
	7.100000	0.371463	3.058297E-6	0.098076
	7.200000	0.371613	-0.000365	0.098080
	7.300000	0.371614	-0.000517	0.098076
	7.400000	0.370746	-0.000454	0.098073
	7.500000	0.369849	-0.000434	0.098078
	7.600000	0.370552	-0.000526	0.098074
	7.700000	0.370227	-0.000471	0.098076
	7.800000	0.368041	-0.000497	0.098081
	7.900000	0.368923	-0.000448	0.098080
	8.000000	0.367760	-0.000431	0.098078
	8.100000	0.367559	-0.000283	0.098083
	8.200000	0.365837	-0.000359	0.098078
	8.300000	0.365579	-0.000260	0.098083
	8.400000	0.366203	-0.000336	0.098083
	8.500000	0.362843	-0.000569	0.098077
	8.600000	0.362679	-0.000253	0.098083
	8.700000	0.362310	-0.000582	0.098080
	8.800000	0.361085	-0.000582	0.098083
	8.900000	0.360321	-0.000599	0.098075
	9.000000	0.361060	-0.000319	0.098073
	9.100000	0.359438	-0.000411	0.098084
	9.200000	0.361160	-0.000362	0.098075
	9.300000	0.359536	-0.000480	0.098083
	9.400000	0.358406	-0.000408	0.098073
	9.500000	0.358443	-0.000540	0.098077
	9.600000	0.358631	-0.000559	0.098084
	9.700000	0.357048	-0.000553	0.098083
	9.800000	0.357704	-0.000319	0.098076
	9.900000	0.355724	-0.000378	0.098076
	10.000000	0.355518	-0.000395	0.098079
	10.100000	0.355869	-0.000461	0.098077
	10.200000	0.354789	-0.000543	0.098075
	10.300000	0.353997	-0.000530	0.098078
	10.400000	0.352169	-0.000500	0.098077
	10.500000	0.353398	-0.000369	0.098080
	10.600000	0.353191	-0.000280	0.098084
	10.700000	0.352725	-0.000494	0.098079
	10.800000	0.352193	-0.000563	0.098074
	10.900000	0.350609	-0.000428	0.098077
	11.000000	0.350343	-0.000401	0.098078
	11.100000	0.350919	-0.000507	0.098074
	11.200000	0.350310	-0.000359	0.098081
	11.300000	0.350212	-0.000372	0.098080
	11.400000	0.350087	-0.000392	0.098083
	11.500000	0.349658	-0.000323	0.098074
	11.600000	0.348869	-0.000382	0.098076
	11.700000	0.348070	-0.000428	0.098082
	11.800000	0.346939	-0.000428	0.098082
	11.900000	0.347352	-0.000296	0.098079
	12.000000	0.347351	-0.000296	0.098081
	12.100000	0.345666	-0.000138	0.098086
	12.200000	0.343795	-0.000303	0.098071
	12.300000	0.344571	-0.000484	0.098078
	12.400000	0.344865	-0.000418	0.098076
	12.500000	0.344352	-0.000290	0.098078
	12.600000	0.345017	-0.000352	0.098077
	12.700000	0.342862	-0.000375	0.098076
	12.800000	0.344382	-0.000365	0.098078
	12.900000	0.343835	-0.000303	0.098074
	13.000000	0.343735	-0.000306	0.098078
	13.100000	0.344637	-0.000194	0.098075
	13.200000	0.342064	-0.000227	0.098078
	13.300000	0.342822	-0.000290	0.098083
	13.400000	0.340365	-0.000247	0.098083
	13.500000	0.342739	-0.000244	0.098077
	13.600000	0.342937	-0.000277	0.098073
	13.700000	0.341354	-0.000411	0.098080
	13.800000	0.340531	-0.000263	0.098072
	13.900000	0.338848	-0.000336	0.098079
	14.000000	0.339430	-0.000313	0.098077
	14.100000	0.337814	-0.000260	0.098080
	14.200000	0.339285	-0.000362	0.098072
	14.300000	0.339516	-0.000609	0.098083
	14.400000	0.338938	-0.000536	0.098077
	14.500000	0.339993	-0.000319	0.098083
	14.600000	0.339315	-0.000385	0.098085
	14.700000	0.339489	-0.000457	0.098080
	14.800000	0.338224	-0.000395	0.098080
	14.900000	0.338214	-0.000526	0.098083
	15.000000	0.339108	-0.000346	0.098081
	15.100000	0.336107	-0.000428	0.098078
	15.200000	0.336384	-0.000336	0.098084
	15.300000	0.335890	-0.000211	0.098080
	15.400000	0.336305	-0.000188	0.098081
	15.500000	0.336670	-0.000365	0.098075
	15.600000	0.336356	-0.000296	0.098088
	15.700000	0.338290	-0.000230	0.098081
	15.800000	0.335863	-0.000286	0.098073
	15.900000	0.336197	-0.000224	0.098082
	16.000000	0.336183	-0.000280	0.098074
	16.100000	0.335356	-0.000352	0.098085
	16.200000	0.335609	-0.000362	0.098081
	16.300000	0.334556	-0.000329	0.098077
	16.400000	0.335682	-0.000336	0.098079
	16.500000	0.336068	-0.000326	0.098084
	16.600000	0.334463	-0.000438	0.098085
	16.700000	0.333215	-0.000355	0.098086
	16.800000	0.334894	-0.000323	0.098084
	16.900000	0.334878	-0.000378	0.098075
	17.000000	0.333093	-0.000300	0.098086
	17.100000	0.335803	-0.000329	0.098079
	17.200000	0.333992	-0.000332	0.098079
	17.300000	0.334161	-0.000342	0.098082
	17.400000	0.333110	-0.000329	0.098079
	17.500000	0.332969	-0.000313	0.098077
	17.600000	0.333370	-0.000306	0.098080
	17.700000	0.329680	-0.000349	0.098078
	17.800000	0.332687	-0.000500	0.098079
	17.900000	0.334110	-0.000497	0.098082
	18.000000	0.332805	-0.000415	0.098085
	18.100000	0.330160	-0.000372	0.098070
	18.200000	0.332059	-0.000296	0.098076
	18.300000	0.333027	-0.000434	0.098084
	18.400000	0.331100	-0.000362	0.098084
	18.500000	0.333142	-0.000300	0.098077
	18.600000	0.332324	-0.000494	0.098082
	18.700000	0.331407	-0.000355	0.098080
	18.800000	0.330941	-0.000431	0.098081
	18.900000	0.332693	-0.000313	0.098075
	19.000000	0.331593	-0.000161	0.098080
	19.100000	0.331587	-0.000191	0.098077
	19.200000	0.331155	-0.000191	0.098081
	19.300000	0.333912	-0.000332	0.098079
	19.400000	0.332061	-0.000342	0.098080
	19.500000	0.332520	-0.000474	0.098083
	19.600000	0.331210	-0.000434	0.098075
	19.700000	0.331641	-0.000365	0.098086
	19.800000	0.332564	-0.000372	0.098079
	19.900000	0.332500	-0.000188	0.098082
	20.000000	0.332083	-0.000221	0.098078
	20.100000	0.331017	-0.000257	0.098084
	20.200000	0.331877	-0.000398	0.098074
	20.300000	0.333561	-0.000171	0.098078
	20.400000	0.332823	-0.000451	0.098077
	20.500000	0.331212	-0.000300	0.098081
	20.600000	0.332741	-0.000253	0.098083
	20.700000	0.331040	-0.000247	0.098076
	20.800000	0.332716	-0.000115	0.098075
	20.900000	0.331807	-0.000267	0.098078
	21.000000	0.333229	-0.000306	0.098073
	21.100000	0.331365	-0.000240	0.098079
	21.200000	0.333618	-0.000388	0.098082
	21.300000	0.331950	-0.000313	0.098085
	21.400000	0.333964	-0.000313	0.098081
	21.500000	0.331053	-0.000286	0.098084
	21.600000	0.332063	-0.000273	0.098083
	21.700000	0.331104	-0.000359	0.098081
	21.800000	0.333200	-0.000415	0.098081
	21.900000	0.332148	-0.000431	0.098083
	22.000000	0.333288	-0.000461	0.098081
	22.100000	0.332543	-0.000464	0.098075
	22.200000	0.333040	-0.000415	0.098079
	22.300000	0.332262	-0.000257	0.098065
	22.400000	0.334369	-0.000323	0.098078
	22.500000	0.332511	-0.000309	0.098083
	22.600000	0.333436	-0.000217	0.098079
	22.700000	0.333608	-0.000319	0.098078
	22.800000	0.334073	-0.000421	0.098084
	22.900000	0.331546	-0.000362	0.098083
	23.000000	0.331311	-0.000326	0.098081
	23.100000	0.332134	-0.000346	0.098079
	23.200000	0.334733	-0.000392	0.098083
	23.300000	0.332750	-0.000438	0.098077
	23.400000	0.334564	-0.000388	0.098084
	23.500000	0.333002	-0.000323	0.098077
	23.600000	0.333334	-0.000175	0.098087
	23.700000	0.334168	-0.000349	0.098078
	23.800000	0.333089	-0.000434	0.098077
	23.900000	0.332775	-0.000382	0.098083
	24.000000	0.334251	-0.000461	0.098078
	24.100000	0.333398	-0.000487	0.098079
	24.200000	0.335276	-0.000296	0.098081
	24.300000	0.334410	-0.000425	0.098089
	24.400000	0.334582	-0.000405	0.098083
	24.500000	0.333473	-0.000375	0.098087
	24.600000	0.331743	-0.000461	0.098073
	24.700000	0.333290	-0.000444	0.098079
	24.800000	0.333185	-0.000346	0.098082
	24.900000	0.335159	-0.000323	0.098085
	25.000000	0.335129	-0.000415	0.098080
	25.100000	0.334053	-0.000388	0.098080
	25.200000	0.331488	-0.000375	0.098081
	25.300000	0.335120	-0.000332	0.098083
	25.400000	0.334033	-0.000444	0.098090
	25.500000	0.333617	-0.000411	0.098082
	25.600000	0.334343	-0.000332	0.098076
	25.700000	0.334200	-0.000362	0.098084
	25.800000	0.335114	-0.000323	0.098083
	25.900000	0.337627	-0.000438	0.098084
	26.000000	0.335791	-0.000342	0.098086
	26.100000	0.334008	-0.000194	0.098079
	26.200000	0.333235	-0.000194	0.098080
	26.300000	0.332090	-0.000211	0.098084
	26.400000	0.335334	-0.000125	0.098080
	26.500000	0.334784	-0.000286	0.098083
	26.600000	0.334789	-0.000122	0.098082
	26.700000	0.336662	-0.000240	0.098083
	26.800000	0.336106	-0.000260	0.098084
	26.900000	0.333938	-0.000290	0.098085
	27.000000	0.333721	-0.000198	0.098090
	27.100000	0.336431	-0.000332	0.098079
	27.200000	0.336864	-0.000342	0.098083
	27.300000	0.338021	-0.000263	0.098090
	27.400000	0.335214	-0.000214	0.098078
	27.500000	0.335333	-0.000286	0.098082
	27.600000	0.336560	-0.000434	0.098076
	27.700000	0.336349	-0.000408	0.098083
	27.800000	0.336794	-0.000461	0.098085
	27.900000	0.336563	-0.000372	0.098077
	28.000000	0.334742	-0.000300	0.098088
	28.100000	0.336797	-0.000352	0.098080
	28.200000	0.334771	-0.000375	0.098075
	28.300000	0.336219	-0.000352	0.098081
	28.400000	0.336815	-0.000382	0.098077
	28.500000	0.334381	-0.000438	0.098081
	28.600000	0.335593	-0.000316	0.098081
	28.700000	0.337974	-0.000369	0.098086
	28.800000	0.335652	-0.000319	0.098081
	28.900000	0.336394	-0.000224	0.098085
	29.000000	0.337845	-0.000270	0.098088
	29.100000	0.338369	-0.000378	0.098075
	29.200000	0.337370	-0.000234	0.098088
	29.300000	0.335454	-0.000227	0.098082
	29.400000	0.336285	-0.000303	0.098079
	29.500000	0.339046	-0.000303	0.098083
	29.600000	0.337388	-0.000227	0.098074
	29.700000	0.337603	-0.000359	0.098087
	29.800000	0.337542	-0.000418	0.098087
	29.900000	0.340503	-0.000244	0.098086
	30.000000	0.338345	-0.000375	0.098076
	30.100000	0.338256	-0.000342	0.098088
	30.200000	0.338701	-0.000375	0.098083
	30.300000	0.337132	-0.000461	0.098082
	30.400000	0.339771	-0.000316	0.098082
	30.500000	0.338243	-0.000434	0.098086
	30.600000	0.339400	-0.000382	0.098079
	30.700000	0.338501	-0.000438	0.098077
	30.800000	0.339778	-0.000405	0.098084
	30.900000	0.340721	-0.000339	0.098083
	31.000000	0.339751	-0.000428	0.098086
	31.100000	0.340634	-0.000398	0.098074
	31.200000	0.338040	-0.000372	0.098083
	31.300000	0.340950	-0.000444	0.098082
	31.400000	0.341317	-0.000342	0.098082
	31.500000	0.340197	-0.000260	0.098087
	31.600000	0.342452	-0.000451	0.098087
	31.700000	0.341750	-0.000346	0.098084
	31.800000	0.341928	-0.000474	0.098087
	31.900000	0.340938	-0.000392	0.098080
	32.000000	0.341144	-0.000408	0.098086
	32.100000	0.342292	-0.000448	0.098084
	32.200000	0.341043	-0.000408	0.098086
	32.300000	0.340227	-0.000290	0.098081
	32.400000	0.341532	-0.000474	0.098086
	32.500000	0.338302	-0.000415	0.098088
	32.600000	0.341791	-0.000405	0.098076
	32.700000	0.339304	-0.000408	0.098081
	32.800000	0.339692	-0.000438	0.098089
	32.900000	0.340543	-0.000392	0.098086
	33.000000	0.340871	-0.000349	0.098077
	33.100000	0.341040	-0.000431	0.098086
	33.200000	0.340927	-0.000392	0.098085
	33.300000	0.340703	-0.000520	0.098079
	33.400000	0.341680	-0.000678	0.098076
	33.500000	0.340857	-0.000638	0.098084
	33.600000	0.342616	-0.000543	0.098083
	33.700000	0.343360	-0.000230	0.098085
	33.800000	0.343347	-0.000148	0.098085
	33.900000	0.344159	-0.000480	0.098084
	34.000000	0.342190	-0.000563	0.098085
	34.100000	0.342994	-7.258990E-5	0.098082
	34.200000	0.343496	-0.000382	0.098086
	34.300000	0.343865	-0.000484	0.098086
	34.400000	0.344732	-0.000497	0.098073
	34.500000	0.343795	-0.000503	0.098078
	34.600000	0.343078	-0.000457	0.098076
	34.700000	0.344746	-0.000569	0.098081
	34.800000	0.344366	-0.000431	0.098090
	34.900000	0.343337	-0.000349	0.098081
	35.000000	0.345605	-0.000221	0.098083
	35.100000	0.344225	-0.000326	0.098086
	35.200000	0.344731	-0.000250	0.098088
	35.300000	0.344701	-0.000171	0.098089
	35.400000	0.342948	-0.000355	0.098085
	35.500000	0.344676	-0.000303	0.098088
	35.600000	0.345527	-0.000181	0.098086
	35.700000	0.342752	-0.000309	0.098087
	35.800000	0.344184	-0.000332	0.098085
	35.900000	0.344814	-0.000355	0.098082
	36.000000	0.345528	-0.000273	0.098075
	36.100000	0.345135	-0.000283	0.098088
	36.200000	0.343220	-0.000300	0.098084
	36.300000	0.347213	-0.000398	0.098087
	36.400000	0.343773	-0.000253	0.098083
	36.500000	0.345588	-0.000365	0.098079
	36.600000	0.346421	-0.000313	0.098082
	36.700000	0.344572	-0.000244	0.098085
	36.800000	0.345606	-0.000388	0.098089
	36.900000	0.343785	-0.000207	0.098083
	37.000000	0.342420	-0.000250	0.098084
	37.100000	0.343996	-0.000293	0.098078
	37.200000	0.344744	-0.000286	0.098080
	37.300000	0.342034	-0.000346	0.098084
	37.400000	0.344280	-0.000421	0.098082
	37.500000	0.343501	-0.000352	0.098080
	37.600000	0.344525	-0.000323	0.098086
	37.700000	0.342858	-0.000326	0.098090
	37.800000	0.345408	-0.000385	0.098081
	37.900000	0.346142	-0.000280	0.098079
	38.000000	0.344695	-0.000300	0.098091
	38.100000	0.346020	-0.000362	0.098079
	38.200000	0.344067	-0.000329	0.098077
	38.300000	0.344354	-0.000365	0.098085
	38.400000	0.343058	-0.000253	0.098084
	38.500000	0.345486	-0.000270	0.098082
	38.600000	0.345605	-0.000392	0.098082
	38.700000	0.343717	-0.000323	0.098080
	38.800000	0.344651	-0.000365	0.098093
	38.900000	0.345673	-0.000230	0.098084
	39.000000	0.346658	-0.000253	0.098087
	39.100000	0.345812	-0.000352	0.098077
	39.200000	0.347092	-0.000398	0.098086
	39.300000	0.345576	-0.000438	0.098088
	39.400000	0.344653	-0.000392	0.098089
	39.500000	0.346947	-0.000359	0.098088
	39.600000	0.347592	-0.000323	0.098087
	39.700000	0.346917	-0.000240	0.098095
	39.800000	0.348496	-0.000270	0.098085
	39.900000	0.346690	-0.000378	0.098095
	40.000000	0.348016	-0.000283	0.098090
	40.100000	0.347303	-0.000237	0.098098
	40.200000	0.344346	-0.000214	0.098087
	40.300000	0.348282	-0.000184	0.098090
	40.400000	0.348541	-0.000142	0.098095
	40.500000	0.349054	-0.000201	0.098094
	40.600000	0.348529	-0.000293	0.098098
	40.700000	0.346142	-0.000339	0.098086
	40.800000	0.350174	-0.000388	0.098087
	40.900000	0.348456	-0.000250	0.098083
	41.000000	0.347855	-0.000240	0.098097
	41.100000	0.348798	-0.000329	0.098088
	41.200000	0.348594	-0.000408	0.098101
	41.300000	0.348016	-0.000214	0.098092
	41.400000	0.348419	-0.000263	0.098088
	41.500000	0.345811	-0.000415	0.098090
	41.600000	0.347463	-0.000375	0.098088
	41.700000	0.347277	-0.000224	0.098090
	41.800000	0.347379	-0.000204	0.098089
	41.900000	0.347865	-0.000277	0.098092
	42.000000	0.348395	-0.000250	0.098092
	42.100000	0.350251	-0.000362	0.098090
	42.200000	0.349752	-0.000428	0.098098
	42.300000	0.347311	-0.000497	0.098103
	42.400000	0.348269	-0.000296	0.098093
	42.500000	0.348956	-0.000395	0.098089
	42.600000	0.348361	-0.000434	0.098086
	42.700000	0.349151	-0.000237	0.098085
	42.800000	0.348380	-0.000415	0.098092
	42.900000	0.348218	-0.000191	0.098089
	43.000000	0.348573	-0.000230	0.098092
	43.100000	0.347394	-0.000474	0.098090
	43.200000	0.351099	-0.000434	0.098097
	43.300000	0.348776	-0.000365	0.098092
	43.400000	0.350203	-0.000546	0.098091
	43.500000	0.350829	-0.000579	0.098095
	43.600000	0.350304	-0.000612	0.098092
	43.700000	0.350978	-0.000428	0.098092
	43.800000	0.348175	-0.000401	0.098085
	43.900000	0.350124	-0.000378	0.098093
	44.000000	0.349600	-0.000418	0.098089
	44.100000	0.346589	-0.000280	0.098087
	44.200000	0.350738	-0.000237	0.098095
	44.300000	0.348315	-0.000477	0.098091
	44.400000	0.351312	-0.000339	0.098092
	44.500000	0.349926	-0.000207	0.098093
	44.600000	0.350513	-0.000339	0.098092
	44.700000	0.352123	-0.000342	0.098095
	44.800000	0.350862	-0.000388	0.098090
	44.900000	0.348296	-0.000332	0.098096
	45.000000	0.349236	-0.000405	0.098090
	45.100000	0.346944	-0.000484	0.098089
	45.200000	0.345215	-0.000451	0.098093
	45.300000	0.349025	-0.000339	0.098092
	45.400000	0.349684	-0.000319	0.098089
	45.500000	0.352119	-0.000323	0.098090
	45.600000	0.347557	-0.000369	0.098094
	45.700000	0.349424	-0.000270	0.098084
	45.800000	0.351290	-0.000332	0.098091
	45.900000	0.351990	-0.000398	0.098089
	46.000000	0.349700	-0.000500	0.098091
	46.100000	0.350250	-0.000392	0.098094
	46.200000	0.350756	-0.000392	0.098085
	46.300000	0.349961	-0.000290	0.098088
	46.400000	0.351617	-0.000503	0.098087
	46.500000	0.352236	-0.000378	0.098087
	46.600000	0.351385	-0.000457	0.098090
	46.700000	0.352470	-0.000355	0.098091
	46.800000	0.350275	-0.000503	0.098093
	46.900000	0.350690	-0.000438	0.098093
	47.000000	0.352673	-0.000372	0.098093
	47.100000	0.352832	-0.000421	0.098095
	47.200000	0.353478	-0.000326	0.098094
	47.300000	0.350687	-0.000171	0.098084
	47.400000	0.353172	-0.000355	0.098087
	47.500000	0.352229	-0.000425	0.098092
	47.600000	0.352570	-0.000438	0.098087
	47.700000	0.352715	-0.000494	0.098089
	47.800000	0.351789	-0.000415	0.098091
	47.900000	0.352893	-0.000467	0.098094
	48.000000	0.355765	-0.000497	0.098090
	48.100000	0.353802	-0.000434	0.098089
	48.200000	0.354802	-0.000405	0.098090
	48.300000	0.354627	-0.000444	0.098090
	48.400000	0.354255	-0.000369	0.098092
	48.500000	0.354389	-0.000415	0.098092
	48.600000	0.354899	-0.000540	0.098092
	48.700000	0.354909	-0.000596	0.098088
	48.800000	0.354980	-0.000526	0.098090
	48.900000	0.353797	-0.000457	0.098083
	49.000000	0.353086	-0.000484	0.098090
	49.100000	0.353382	-0.000418	0.098088
	49.200000	0.355264	-0.000431	0.098091
	49.300000	0.356065	-0.000425	0.098084
	49.400000	0.353074	-0.000253	0.098097
	49.500000	0.352655	-0.000378	0.098091
